Time	FP1	FP2	C3	C4	P7	P8	O1	O2	F7	F8	F3	F4	T7	T8	P3	P4
0.0000	-1.1320	-1.1319	0.4401	1.3680	-1.1329	-1.1241	-1.1140	0.7548	-1.1049	-1.0621	0.3463	-1.0553	-1.1049	-1.0955	1.6327	-1.1116
8.0000	-1.1879	-1.1921	0.4775	1.4268	-1.1904	-1.1801	-1.1378	0.7995	-1.1163	-1.0797	0.3298	-1.0749	-1.1152	-1.1063	1.6981	-1.1222
16.0000	-1.2276	-1.2319	0.4958	1.4747	-1.2301	-1.2205	-1.1737	0.8349	-1.1515	-1.1142	0.3523	-1.1103	-1.1508	-1.1416	1.7618	-1.1589
24.0000	-1.2631	-1.2658	0.5024	1.5145	-1.2649	-1.2562	-1.2198	0.8632	-1.2002	-1.1597	0.3912	-1.1554	-1.2001	-1.1909	1.8227	-1.2091
32.0000	-1.3071	-1.3099	0.5155	1.5559	-1.3092	-1.3000	-1.2634	0.8952	-1.2427	-1.2023	0.4136	-1.1976	-1.2425	-1.2338	1.8851	-1.2513
40.0000	-1.3517	-1.3557	0.5350	1.6000	-1.3549	-1.3453	-1.3019	0.9322	-1.2815	-1.2431	0.4303	-1.2382	-1.2814	-1.2731	1.9534	-1.2898
48.0000	-1.3908	-1.3947	0.5522	1.6428	-1.3947	-1.3851	-1.3420	0.9693	-1.3250	-1.2872	0.4606	-1.2820	-1.3255	-1.3175	2.0230	-1.3342
56.0000	-1.4343	-1.4375	0.5697	1.6856	-1.4386	-1.4283	-1.3872	1.0072	-1.3703	-1.3324	0.4946	-1.3267	-1.3714	-1.3635	2.0883	-1.3804
64.0000	-1.4871	-1.4906	0.5910	1.7305	-1.4920	-1.4806	-1.4369	1.0480	-1.4161	-1.3786	0.5215	-1.3729	-1.4175	-1.4098	2.1542	-1.4263
72.0000	-1.5405	-1.5445	0.6115	1.7753	-1.5458	-1.5339	-1.4896	1.0886	-1.4676	-1.4297	0.5500	-1.4246	-1.4695	-1.4617	2.2258	-1.4780
80.0000	-1.5906	-1.5943	0.6298	1.8202	-1.5960	-1.5833	-1.5422	1.1285	-1.5231	-1.4834	0.5840	-1.4794	-1.5249	-1.5168	2.2972	-1.5334
88.0000	-1.6428	-1.6461	0.6514	1.8681	-1.6482	-1.6341	-1.5926	1.1716	-1.5758	-1.5342	0.6156	-1.5321	-1.5772	-1.5684	2.3652	-1.5856
96.0000	-1.6968	-1.7001	0.6753	1.9160	-1.7022	-1.6873	-1.6433	1.2170	-1.6272	-1.5847	0.6455	-1.5845	-1.6285	-1.6186	2.4361	-1.6365
104.0000	-1.7474	-1.7504	0.6949	1.9578	-1.7522	-1.7378	-1.6969	1.2604	-1.6806	-1.6383	0.6790	-1.6397	-1.6822	-1.6715	2.5110	-1.6899
112.0000	-1.7962	-1.7985	0.7121	1.9948	-1.8001	-1.7858	-1.7510	1.3024	-1.7327	-1.6914	0.7109	-1.6942	-1.7342	-1.7236	2.5847	-1.7418
120.0000	-1.8466	-1.8485	0.7322	2.0331	-1.8503	-1.8354	-1.8023	1.3470	-1.7817	-1.7413	0.7373	-1.7457	-1.7827	-1.7724	2.6590	-1.7903
128.0000	-1.8956	-1.8975	0.7529	2.0731	-1.8999	-1.8846	-1.8518	1.3922	-1.8308	-1.7909	0.7651	-1.7969	-1.8317	-1.8217	2.7368	-1.8397
136.0000	-1.9412	-1.9431	0.7707	2.1124	-1.9457	-1.9307	-1.9021	1.4344	-1.8801	-1.8410	0.7966	-1.8479	-1.8815	-1.8720	2.8130	-1.8902
144.0000	-1.9870	-1.9890	0.7882	2.1528	-1.9913	-1.9763	-1.9526	1.4751	-1.9265	-1.8884	0.8247	-1.8961	-1.9278	-1.9192	2.8873	-1.9375
152.0000	-2.0359	-2.0379	0.8079	2.1964	-2.0397	-2.0245	-2.0022	1.5159	-1.9725	-1.9345	0.8499	-1.9427	-1.9729	-1.9652	2.9686	-1.9834
160.0000	-2.0875	-2.0894	0.8269	2.2403	-2.0908	-2.0759	-2.0533	1.5552	-2.0229	-1.9844	0.8787	-1.9923	-2.0228	-2.0155	3.0551	-2.0331
168.0000	-2.1418	-2.1436	0.8443	2.2824	-2.1448	-2.1297	-2.1078	1.5934	-2.0772	-2.0388	0.9087	-2.0463	-2.0779	-2.0706	3.1369	-2.0871
176.0000	-2.1963	-2.1980	0.8626	2.3244	-2.1994	-2.1837	-2.1636	1.6333	-2.1322	-2.0944	0.9352	-2.1020	-2.1338	-2.1264	3.2178	-2.1419
184.0000	-2.2459	-2.2476	0.8813	2.3671	-2.2492	-2.2334	-2.2160	1.6741	-2.1855	-2.1481	0.9616	-2.1557	-2.1872	-2.1800	3.3059	-2.1954
192.0000	-2.2911	-2.2925	0.8976	2.4088	-2.2941	-2.2786	-2.2631	1.7129	-2.2353	-2.1975	0.9904	-2.2049	-2.2364	-2.2294	3.3938	-2.2455
200.0000	-2.3364	-2.3374	0.9120	2.4490	-2.3390	-2.3234	-2.3073	1.7493	-2.2813	-2.2425	1.0168	-2.2502	-2.2822	-2.2751	3.4772	-2.2916
208.0000	-2.3805	-2.3814	0.9257	2.4890	-2.3832	-2.3678	-2.3509	1.7839	-2.3261	-2.2859	1.0393	-2.2944	-2.3273	-2.3198	3.5676	-2.3356
216.0000	-2.4187	-2.4198	0.9381	2.5296	-2.4223	-2.4078	-2.3933	1.8160	-2.3695	-2.3285	1.0622	-2.3373	-2.3710	-2.3640	3.6652	-2.3784
224.0000	-2.4531	-2.4542	0.9502	2.5718	-2.4570	-2.4435	-2.4329	1.8459	-2.4082	-2.3676	1.0865	-2.3761	-2.4097	-2.4042	3.7556	-2.4176
232.0000	-2.4871	-2.4878	0.9637	2.6166	-2.4907	-2.4776	-2.4699	1.8747	-2.4425	-2.4025	1.1101	-2.4110	-2.4438	-2.4397	3.8426	-2.4528
240.0000	-2.5184	-2.5185	0.9766	2.6614	-2.5216	-2.5089	-2.5036	1.9005	-2.4756	-2.4352	1.1341	-2.4446	-2.4769	-2.4732	3.9404	-2.4859
248.0000	-2.5432	-2.5427	0.9868	2.7026	-2.5467	-2.5346	-2.5319	1.9209	-2.5066	-2.4654	1.1592	-2.4759	-2.5080	-2.5041	4.0403	-2.5157
256.0000	-2.5617	-2.5609	0.9963	2.7400	-2.5656	-2.5546	-2.5533	1.9368	-2.5308	-2.4896	1.1827	-2.5014	-2.5325	-2.5287	4.1311	-2.5389
264.0000	-2.5734	-2.5725	1.0069	2.7736	-2.5776	-2.5685	-2.5677	1.9485	-2.5472	-2.5072	1.2053	-2.5201	-2.5494	-2.5468	4.2271	-2.5551
272.0000	-2.5761	-2.5754	1.0155	2.7992	-2.5804	-2.5745	-2.5751	1.9530	-2.5566	-2.5198	1.2299	-2.5326	-2.5592	-2.5591	4.3344	-2.5649
280.0000	-2.5697	-2.5692	1.0208	2.8126	-2.5744	-2.5718	-2.5749	1.9497	-2.5578	-2.5266	1.2540	-2.5377	-2.5602	-2.5634	4.4342	-2.5664
288.0000	-2.5544	-2.5541	1.0258	2.8137	-2.5593	-2.5596	-2.5659	1.9416	-2.5489	-2.5254	1.2747	-2.5339	-2.5511	-2.5577	4.5282	-2.5576
296.0000	-2.5288	-2.5284	1.0311	2.8029	-2.5337	-2.5367	-2.5471	1.9299	-2.5305	-2.5145	1.2955	-2.5202	-2.5325	-2.5424	4.6372	-2.5383
304.0000	-2.4943	-2.4935	1.0332	2.7782	-2.4989	-2.5046	-2.5190	1.9110	-2.5033	-2.4935	1.3180	-2.4972	-2.5051	-2.5183	4.7400	-2.5095
312.0000	-2.4537	-2.4524	1.0300	2.7384	-2.4583	-2.4666	-2.4842	1.8821	-2.4679	-2.4632	1.3374	-2.4663	-2.4693	-2.4860	4.7874	-2.4726
320.0000	-2.4053	-2.4037	1.0234	2.6852	-2.4102	-2.4214	-2.4424	1.8440	-2.4247	-2.4251	1.3513	-2.4283	-2.4258	-2.4460	4.7722	-2.4280
328.0000	-2.3476	-2.3459	1.0159	2.6194	-2.3525	-2.3664	-2.3908	1.8013	-2.3736	-2.3800	1.3642	-2.3819	-2.3746	-2.3984	4.7123	-2.3747
336.0000	-2.2843	-2.2827	1.0078	2.5379	-2.2891	-2.3045	-2.3302	1.7596	-2.3153	-2.3298	1.3785	-2.3285	-2.3162	-2.3439	4.5943	-2.3131
344.0000	-2.2166	-2.2151	0.9978	2.4357	-2.2211	-2.2380	-2.2641	1.7202	-2.2516	-2.2776	1.3911	-2.2719	-2.2523	-2.2841	4.4003	-2.2461
352.0000	-2.1385	-2.1373	0.9828	2.3099	-2.1429	-2.1627	-2.1920	1.6779	-2.1806	-2.2226	1.3993	-2.2112	-2.1810	-2.2183	4.1435	-2.1730
360.0000	-2.0497	-2.0488	0.9624	2.1638	-2.0540	-2.0769	-2.1098	1.6287	-2.0991	-2.1589	1.4021	-2.1406	-2.0992	-2.1424	3.8286	-2.0906
368.0000	-1.9570	-1.9562	0.9403	2.0055	-1.9614	-1.9854	-2.0184	1.5752	-2.0092	-2.0837	1.3996	-2.0596	-2.0090	-2.0570	3.4406	-2.0005
376.0000	-1.8593	-1.8585	0.9181	1.8399	-1.8640	-1.8886	-1.9210	1.5180	-1.9156	-1.9991	1.3945	-1.9728	-1.9149	-1.9659	2.9944	-1.9062
384.0000	-1.7480	-1.7472	0.8921	1.6658	-1.7530	-1.7793	-1.8149	1.4504	-1.8148	-1.9042	1.3888	-1.8779	-1.8135	-1.8661	2.5161	-1.8040
392.0000	-1.6239	-1.6230	0.8595	1.4820	-1.6291	-1.6564	-1.6959	1.3684	-1.7004	-1.7953	1.3790	-1.7689	-1.6986	-1.7522	1.9911	-1.6875
400.0000	-1.4951	-1.4942	0.8230	1.2903	-1.5006	-1.5267	-1.5679	1.2772	-1.5751	-1.6754	1.3623	-1.6490	-1.5729	-1.6269	1.4063	-1.5605
408.0000	-1.3636	-1.3627	0.7843	1.0896	-1.3688	-1.3932	-1.4373	1.1823	-1.4459	-1.5531	1.3415	-1.5271	-1.4433	-1.4976	0.7957	-1.4303
416.0000	-1.2259	-1.2252	0.7400	0.8749	-1.2305	-1.2541	-1.3044	1.0822	-1.3130	-1.4325	1.3181	-1.4050	-1.3103	-1.3648	0.1680	-1.2969
424.0000	-1.0822	-1.0820	0.6876	0.6449	-1.0861	-1.1089	-1.1661	0.9746	-1.1732	-1.3110	1.2866	-1.2786	-1.1705	-1.2250	-0.5228	-1.1569
432.0000	-0.9331	-0.9334	0.6289	0.4060	-0.9361	-0.9580	-1.0216	0.8609	-1.0268	-1.1858	1.2437	-1.1461	-1.0240	-1.0782	-1.2731	-1.0110
440.0000	-0.7775	-0.7789	0.5665	0.1639	-0.7793	-0.8009	-0.8701	0.7442	-0.8753	-1.0556	1.1929	-1.0066	-0.8722	-0.9257	-2.0012	-0.8605
448.0000	-0.6181	-0.6210	0.5015	-0.0787	-0.6187	-0.6400	-0.7108	0.6254	-0.7187	-0.9206	1.1362	-0.8597	-0.7157	-0.7675	-2.6512	-0.7056
456.0000	-0.4559	-0.4608	0.4344	-0.3185	-0.4561	-0.4769	-0.5454	0.5031	-0.5581	-0.7810	1.0726	-0.7073	-0.5558	-0.6050	-3.1950	-0.5475
464.0000	-0.2862	-0.2928	0.3642	-0.5516	-0.2863	-0.3074	-0.3758	0.3740	-0.3931	-0.6340	1.0018	-0.5500	-0.3908	-0.4374	-3.5478	-0.3843
472.0000	-0.1097	-0.1181	0.2891	-0.7765	-0.1092	-0.1315	-0.2030	0.2382	-0.2208	-0.4754	0.9234	-0.3840	-0.2173	-0.2614	-3.6506	-0.2118
480.0000	0.0623	0.0522	0.2118	-0.9909	0.0636	0.0414	-0.0302	0.1016	-0.0453	-0.3089	0.8354	-0.2114	-0.0408	-0.0811	-3.6093	-0.0347
488.0000	0.2249	0.2134	0.1378	-1.1882	0.2269	0.2062	0.1381	-0.0298	0.1235	-0.1432	0.7410	-0.0419	0.1281	0.0930	-3.5840	0.1356
496.0000	0.3851	0.3729	0.0694	-1.3636	0.3883	0.3684	0.3016	-0.1554	0.2843	0.0211	0.6484	0.1210	0.2885	0.2593	-3.5940	0.2974
504.0000	0.5476	0.5347	0.0028	-1.5194	0.5519	0.5311	0.4640	-0.2799	0.4446	0.1902	0.5595	0.2837	0.4489	0.4254	-3.5733	0.4580
512.0000	0.7113	0.6973	-0.0651	-1.6614	0.7158	0.6928	0.6277	-0.4088	0.6079	0.3635	0.4687	0.4499	0.6125	0.5936	-3.5311	0.6209
520.0000	0.8768	0.8615	-0.1328	-1.7920	0.8806	0.8552	0.7941	-0.5446	0.7732	0.5374	0.3738	0.6186	0.7781	0.7613	-3.5140	0.7857
528.0000	1.0352	1.0188	-0.1960	-1.9090	1.0387	1.0131	0.9583	-0.6796	0.9380	0.7107	0.2791	0.7887	0.9432	0.9267	-3.5038	0.9512
536.0000	1.1644	1.1473	-0.2518	-2.0098	1.1685	1.1463	1.1036	-0.7981	1.0890	0.8748	0.1886	0.9486	1.0942	1.0794	-3.4682	1.1033
544.0000	1.2580	1.2409	-0.3026	-2.0964	1.2634	1.2451	1.2153	-0.8959	1.2073	1.0123	0.1022	1.0783	1.2118	1.2013	-3.4263	1.2218
552.0000	1.3416	1.3258	-0.3585	-2.1777	1.3489	1.3305	1.3023	-0.9905	1.2961	1.1220	0.0159	1.1762	1.3004	1.2934	-3.3965	1.3105
560.0000	1.4447	1.4311	-0.4291	-2.2637	1.4537	1.4308	1.3924	-1.1046	1.3838	1.2285	-0.0797	1.2690	1.3898	1.3829	-3.3656	1.3993
568.0000	1.5768	1.5650	-0.5152	-2.3583	1.5861	1.5571	1.5056	-1.2481	1.4949	1.3557	-0.1928	1.3830	1.5033	1.4944	-3.3380	1.5124
576.0000	1.7339	1.7234	-0.6103	-2.4589	1.7425	1.7085	1.6452	-1.4177	1.6345	1.5092	-0.3210	1.5250	1.6449	1.6333	-3.3336	1.6541
584.0000	1.9008	1.8913	-0.7086	-2.5604	1.9098	1.8741	1.8038	-1.5994	1.7959	1.6835	-0.4557	1.6896	1.8079	1.7938	-3.3415	1.8177
592.0000	2.0500	2.0417	-0.8048	-2.6557	2.0613	2.0287	1.9637	-1.7698	1.9596	1.8630	-0.5917	1.8606	1.9731	1.9581	-3.3407	1.9828
600.0000	2.1684	2.1611	-0.8904	-2.7365	2.1814	2.1539	2.1052	-1.9091	2.0998	2.0230	-0.7240	2.0139	2.1140	2.1006	-3.3365	2.1220
608.0000	2.2695	2.2632	-0.9591	-2.7979	2.2827	2.2586	2.2215	-2.0149	2.2112	2.1539	-0.8429	2.1400	2.2250	2.2136	-3.3315	2.2311
616.0000	2.3605	2.3554	-1.0149	-2.8431	2.3732	2.3531	2.3155	-2.0941	2.3088	2.2676	-0.9434	2.2505	2.3217	2.3117	-3.3087	2.3275
624.0000	2.4254	2.4219	-1.0671	-2.8787	2.4379	2.4240	2.3842	-2.1518	2.3928	2.3670	-1.0331	2.3468	2.4049	2.3976	-3.2698	2.4116
632.0000	2.4591	2.4570	-1.1202	-2.9089	2.4717	2.4626	2.4257	-2.1939	2.4472	2.4370	-1.1215	2.4132	2.4588	2.4548	-3.2363	2.4652
640.0000	2.4790	2.4780	-1.1713	-2.9324	2.4921	2.4847	2.4506	-2.2263	2.4745	2.4759	-1.2098	2.4492	2.4861	2.4834	-3.2079	2.4908
648.0000	2.4943	2.4941	-1.2177	-2.9468	2.5081	2.5024	2.4687	-2.2480	2.4920	2.5012	-1.2945	2.4729	2.5040	2.5015	-3.1697	2.5076
656.0000	2.5089	2.5100	-1.2611	-2.9547	2.5225	2.5170	2.4826	-2.2635	2.5056	2.5215	-1.3751	2.4927	2.5176	2.5163	-3.1265	2.5208
664.0000	2.5498	2.5527	-1.3043	-2.9649	2.5620	2.5498	2.5090	-2.2957	2.5254	2.5420	-1.4534	2.5149	2.5373	2.5349	-3.0891	2.5398
672.0000	2.6318	2.6359	-1.3466	-2.9805	2.6423	2.6219	2.5719	-2.3555	2.5793	2.5866	-1.5301	2.5644	2.5916	2.5841	-3.0522	2.5937
680.0000	2.7078	2.7114	-1.3812	-2.9889	2.7167	2.6997	2.6541	-2.4095	2.6650	2.6643	-1.6025	2.6478	2.6766	2.6664	-3.0113	2.6795
688.0000	2.7173	2.7193	-1.3999	-2.9741	2.7246	2.7215	2.6978	-2.4139	2.7232	2.7309	-1.6621	2.7166	2.7319	2.7273	-2.9680	2.7355
696.0000	2.6680	2.6689	-1.4016	-2.9365	2.6735	2.6799	2.6767	-2.3714	2.7097	2.7363	-1.7016	2.7209	2.7150	2.7185	-2.9140	2.7175
704.0000	2.6108	2.6116	-1.3926	-2.8895	2.6149	2.6211	2.6238	-2.3171	2.6523	2.6907	-1.7233	2.6748	2.6558	2.6624	-2.8422	2.6570
712.0000	2.5622	2.5634	-1.3769	-2.8388	2.5652	2.5705	2.5746	-2.2637	2.5971	2.6373	-1.7351	2.6232	2.5997	2.6064	-2.7641	2.6014
720.0000	2.5063	2.5078	-1.3525	-2.7795	2.5081	2.5163	2.5272	-2.1993	2.5467	2.5887	-1.7379	2.5767	2.5480	2.5567	-2.6881	2.5512
728.0000	2.4420	2.4439	-1.3184	-2.7100	2.4435	2.4536	2.4719	-2.1220	2.4865	2.5328	-1.7277	2.5218	2.4870	2.4980	-2.6041	2.4906
736.0000	2.3784	2.3809	-1.2790	-2.6350	2.3808	2.3912	2.4126	-2.0417	2.4218	2.4713	-1.7061	2.4596	2.4226	2.4342	-2.5095	2.4257
744.0000	2.3088	2.3119	-1.2371	-2.5550	2.3118	2.3248	2.3502	-1.9569	2.3577	2.4108	-1.6786	2.3970	2.3585	2.3718	-2.4167	2.3616
752.0000	2.2265	2.2298	-1.1909	-2.4678	2.2292	2.2457	2.2763	-1.8617	2.2845	2.3436	-1.6453	2.3269	2.2839	2.3006	-2.3267	2.2873
760.0000	2.1422	2.1455	-1.1407	-2.3780	2.1444	2.1609	2.1915	-1.7634	2.2004	2.2634	-1.6038	2.2451	2.1987	2.2169	-2.2301	2.2021
768.0000	2.0651	2.0686	-1.0916	-2.2946	2.0673	2.0817	2.1066	-1.6735	2.1180	2.1792	-1.5575	2.1613	2.1166	2.1335	-2.1320	2.1200
776.0000	1.9929	1.9968	-1.0463	-2.2189	1.9948	2.0077	2.0290	-1.5933	2.0428	2.0996	-1.5122	2.0830	2.0416	2.0570	-2.0433	2.0450
784.0000	1.9269	1.9308	-1.0023	-2.1462	1.9279	1.9387	1.9619	-1.5193	1.9717	2.0252	-1.4680	2.0103	1.9701	1.9844	-1.9589	1.9730
792.0000	1.8744	1.8781	-0.9591	-2.0750	1.8746	1.8822	1.9077	-1.4533	1.9087	1.9597	-1.4222	1.9466	1.9071	1.9197	-1.8729	1.9089
800.0000	1.8354	1.8390	-0.9207	-2.0084	1.8351	1.8404	1.8637	-1.3983	1.8602	1.9087	-1.3765	1.8975	1.8592	1.8702	-1.7928	1.8605
808.0000	1.8035	1.8070	-0.8887	-1.9479	1.8026	1.8069	1.8249	-1.3543	1.8232	1.8693	-1.3350	1.8600	1.8223	1.8328	-1.7225	1.8242
816.0000	1.7753	1.7781	-0.8596	-1.8920	1.7733	1.7765	1.7913	-1.3187	1.7916	1.8353	-1.2975	1.8284	1.7900	1.8007	-1.6548	1.7930
824.0000	1.7458	1.7480	-0.8310	-1.8384	1.7428	1.7457	1.7622	-1.2866	1.7627	1.8045	-1.2616	1.8001	1.7603	1.7711	-1.5882	1.7641
832.0000	1.7061	1.7080	-0.8027	-1.7843	1.7025	1.7075	1.7290	-1.2510	1.7304	1.7724	-1.2266	1.7696	1.7275	1.7387	-1.5267	1.7312
840.0000	1.6510	1.6528	-0.7715	-1.7258	1.6474	1.6556	1.6834	-1.2056	1.6860	1.7304	-1.1916	1.7282	1.6827	1.6945	-1.4657	1.6856
848.0000	1.5826	1.5842	-0.7318	-1.6590	1.5794	1.5903	1.6255	-1.1476	1.6268	1.6747	-1.1516	1.6720	1.6234	1.6356	-1.3980	1.6254
856.0000	1.5039	1.5055	-0.6836	-1.5845	1.5016	1.5145	1.5560	-1.0782	1.5552	1.6074	-1.1016	1.6031	1.5523	1.5655	-1.3253	1.5536
864.0000	1.4201	1.4220	-0.6335	-1.5087	1.4191	1.4321	1.4738	-1.0051	1.4748	1.5307	-1.0434	1.5239	1.4725	1.4866	-1.2510	1.4730
872.0000	1.3414	1.3436	-0.5871	-1.4394	1.3416	1.3522	1.3872	-0.9383	1.3926	1.4481	-0.9847	1.4398	1.3907	1.4040	-1.1759	1.3905
880.0000	1.2755	1.2777	-0.5440	-1.3783	1.2761	1.2838	1.3110	-0.8801	1.3186	1.3694	-0.9301	1.3619	1.3171	1.3279	-1.1043	1.3165
888.0000	1.2199	1.2216	-0.5010	-1.3206	1.2198	1.2263	1.2493	-0.8256	1.2567	1.3031	-0.8779	1.2974	1.2557	1.2647	-1.0393	1.2546
896.0000	1.1664	1.1673	-0.4564	-1.2628	1.1654	1.1715	1.1937	-0.7732	1.2022	1.2469	-0.8239	1.2427	1.2006	1.2095	-0.9755	1.1990
904.0000	1.1107	1.1108	-0.4106	-1.2054	1.1093	1.1146	1.1376	-0.7258	1.1486	1.1926	-0.7675	1.1899	1.1451	1.1546	-0.9089	1.1434
912.0000	1.0519	1.0517	-0.3632	-1.1481	1.0504	1.0553	1.0815	-0.6812	1.0926	1.1362	-0.7094	1.1352	1.0871	1.0974	-0.8439	1.0858
920.0000	0.9881	0.9879	-0.3122	-1.0886	0.9872	0.9924	1.0239	-0.6339	1.0325	1.0770	-0.6487	1.0772	1.0259	1.0369	-0.7805	1.0245
928.0000	0.9190	0.9185	-0.2570	-1.0270	0.9193	0.9242	0.9615	-0.5831	0.9667	1.0130	-0.5838	1.0131	0.9596	0.9710	-0.7125	0.9573
936.0000	0.8501	0.8493	-0.2013	-0.9662	0.8515	0.8555	0.8965	-0.5325	0.8970	0.9437	-0.5163	0.9429	0.8891	0.9007	-0.6406	0.8862
944.0000	0.7906	0.7896	-0.1507	-0.9083	0.7922	0.7957	0.8360	-0.4840	0.8304	0.8757	-0.4511	0.8742	0.8221	0.8339	-0.5716	0.8192
952.0000	0.7426	0.7418	-0.1070	-0.8546	0.7441	0.7473	0.7833	-0.4388	0.7745	0.8173	-0.3925	0.8154	0.7662	0.7781	-0.5065	0.7637
960.0000	0.7002	0.6994	-0.0676	-0.8070	0.7019	0.7036	0.7373	-0.3990	0.7286	0.7682	-0.3413	0.7660	0.7207	0.7321	-0.4436	0.7187
968.0000	0.6598	0.6589	-0.0307	-0.7644	0.6616	0.6615	0.6974	-0.3632	0.6869	0.7232	-0.2951	0.7202	0.6791	0.6896	-0.3847	0.6777
976.0000	0.6250	0.6242	0.0026	-0.7231	0.6262	0.6254	0.6631	-0.3279	0.6479	0.6818	-0.2518	0.6775	0.6403	0.6502	-0.3300	0.6396
984.0000	0.5955	0.5948	0.0320	-0.6833	0.5961	0.5955	0.6308	-0.2937	0.6151	0.6472	-0.2118	0.6416	0.6078	0.6173	-0.2763	0.6079
992.0000	0.5619	0.5610	0.0609	-0.6466	0.5624	0.5621	0.5961	-0.2617	0.5853	0.6153	-0.1759	0.6090	0.5785	0.5873	-0.2243	0.5790
1000.0000	0.5159	0.5144	0.0973	-0.6071	0.5159	0.5167	0.5562	-0.2256	0.5485	0.5774	-0.1391	0.5705	0.5415	0.5501	-0.1746	0.5417
1008.0000	0.4573	0.4552	0.1467	-0.5554	0.4557	0.4591	0.5070	-0.1772	0.4983	0.5296	-0.0910	0.5219	0.4904	0.4998	-0.1191	0.4898
1016.0000	0.3895	0.3868	0.2059	-0.4933	0.3866	0.3924	0.4445	-0.1182	0.4362	0.4721	-0.0271	0.4632	0.4272	0.4378	-0.0520	0.4262
1024.0000	0.3167	0.3136	0.2646	-0.4293	0.3134	0.3204	0.3716	-0.0567	0.3657	0.4050	0.0442	0.3947	0.3563	0.3679	0.0191	0.3556
1032.0000	0.2464	0.2435	0.3163	-0.3640	0.2426	0.2509	0.2979	0.0056	0.2922	0.3330	0.1123	0.3211	0.2831	0.2953	0.0849	0.2829
1040.0000	0.1882	0.1868	0.3559	-0.2951	0.1837	0.1936	0.2311	0.0678	0.2240	0.2665	0.1736	0.2531	0.2159	0.2288	0.1447	0.2161
1048.0000	0.1537	0.1545	0.3679	-0.2374	0.1496	0.1588	0.1777	0.1155	0.1714	0.2145	0.2210	0.1990	0.1649	0.1783	0.1927	0.1666
1056.0000	0.1553	0.1581	0.3315	-0.2142	0.1524	0.1576	0.1512	0.1272	0.1468	0.1843	0.2315	0.1666	0.1433	0.1556	0.2110	0.1471
1064.0000	0.1923	0.1958	0.2478	-0.2276	0.1896	0.1906	0.1626	0.1013	0.1605	0.1854	0.1855	0.1670	0.1608	0.1699	0.1882	0.1659
1072.0000	0.2414	0.2445	0.1465	-0.2527	0.2371	0.2381	0.2008	0.0621	0.2043	0.2180	0.0955	0.2016	0.2068	0.2132	0.1346	0.2119
1080.0000	0.2809	0.2837	0.0532	-0.2677	0.2747	0.2788	0.2415	0.0320	0.2512	0.2629	-0.0018	0.2487	0.2533	0.2601	0.0717	0.2588
1088.0000	0.3186	0.3220	-0.0376	-0.2748	0.3110	0.3169	0.2768	0.0081	0.2870	0.3030	-0.0870	0.2886	0.2888	0.2970	0.0099	0.2956
1096.0000	0.3725	0.3767	-0.1433	-0.2879	0.3639	0.3689	0.3187	-0.0260	0.3276	0.3445	-0.1730	0.3284	0.3310	0.3384	-0.0577	0.3388
1104.0000	0.4342	0.4387	-0.2597	-0.3100	0.4254	0.4293	0.3726	-0.0718	0.3863	0.3991	-0.2746	0.3821	0.3917	0.3966	-0.1399	0.3997
1112.0000	0.4766	0.4806	-0.3606	-0.3296	0.4689	0.4733	0.4261	-0.1120	0.4459	0.4556	-0.3804	0.4382	0.4512	0.4548	-0.2286	0.4585
1120.0000	0.4887	0.4918	-0.4250	-0.3344	0.4827	0.4887	0.4643	-0.1302	0.4803	0.4919	-0.4638	0.4734	0.4841	0.4879	-0.3002	0.4895
1128.0000	0.4791	0.4814	-0.4518	-0.3217	0.4743	0.4820	0.4797	-0.1242	0.4858	0.5017	-0.5092	0.4816	0.4881	0.4921	-0.3389	0.4907
1136.0000	0.4546	0.4566	-0.4524	-0.2980	0.4505	0.4598	0.4710	-0.1015	0.4721	0.4915	-0.5197	0.4709	0.4728	0.4773	-0.3486	0.4732
1144.0000	0.4181	0.4203	-0.4396	-0.2711	0.4153	0.4247	0.4426	-0.0703	0.4446	0.4663	-0.5075	0.4461	0.4431	0.4488	-0.3406	0.4429
1152.0000	0.3759	0.3783	-0.4223	-0.2451	0.3746	0.3828	0.4045	-0.0364	0.4068	0.4293	-0.4854	0.4097	0.4038	0.4100	-0.3231	0.4030
1160.0000	0.3337	0.3356	-0.4027	-0.2196	0.3331	0.3402	0.3638	-0.0009	0.3651	0.3869	-0.4613	0.3681	0.3618	0.3673	-0.3016	0.3600
1168.0000	0.2928	0.2937	-0.3793	-0.1924	0.2919	0.2990	0.3220	0.0380	0.3235	0.3439	-0.4356	0.3266	0.3200	0.3249	-0.2782	0.3172
1176.0000	0.2541	0.2543	-0.3523	-0.1639	0.2531	0.2598	0.2813	0.0787	0.2830	0.3019	-0.4063	0.2862	0.2789	0.2835	-0.2506	0.2752
1184.0000	0.2171	0.2170	-0.3246	-0.1365	0.2169	0.2222	0.2447	0.1175	0.2452	0.2629	-0.3755	0.2479	0.2407	0.2446	-0.2181	0.2356
1192.0000	0.1763	0.1762	-0.2958	-0.1109	0.1771	0.1816	0.2099	0.1553	0.2080	0.2251	-0.3459	0.2105	0.2031	0.2064	-0.1844	0.1972
1200.0000	0.1290	0.1289	-0.2629	-0.0849	0.1299	0.1349	0.1711	0.1961	0.1655	0.1828	-0.3159	0.1692	0.1597	0.1634	-0.1498	0.1541
1208.0000	0.0792	0.0795	-0.2265	-0.0586	0.0801	0.0849	0.1261	0.2395	0.1170	0.1345	-0.2825	0.1223	0.1103	0.1147	-0.1104	0.1051
1216.0000	0.0321	0.0323	-0.1895	-0.0335	0.0332	0.0369	0.0784	0.2823	0.0679	0.0848	-0.2474	0.0738	0.0608	0.0652	-0.0671	0.0556
1224.0000	-0.0104	-0.0102	-0.1516	-0.0087	-0.0084	-0.0058	0.0346	0.3250	0.0214	0.0382	-0.2126	0.0277	0.0147	0.0191	-0.0238	0.0102
1232.0000	-0.0448	-0.0442	-0.1138	0.0172	-0.0423	-0.0402	-0.0014	0.3672	-0.0198	-0.0028	-0.1766	-0.0131	-0.0261	-0.0209	0.0201	-0.0289
1240.0000	-0.0698	-0.0684	-0.0839	0.0392	-0.0680	-0.0663	-0.0322	0.4011	-0.0514	-0.0353	-0.1422	-0.0454	-0.0570	-0.0519	0.0626	-0.0588
1248.0000	-0.0896	-0.0881	-0.0677	0.0519	-0.0892	-0.0882	-0.0619	0.4213	-0.0741	-0.0605	-0.1176	-0.0703	-0.0791	-0.0749	0.0939	-0.0808
1256.0000	-0.1068	-0.1055	-0.0597	0.0600	-0.1073	-0.1068	-0.0874	0.4339	-0.0937	-0.0823	-0.1051	-0.0918	-0.0986	-0.0945	0.1098	-0.0994
1264.0000	-0.1182	-0.1168	-0.0523	0.0705	-0.1188	-0.1183	-0.1035	0.4465	-0.1104	-0.0998	-0.0967	-0.1098	-0.1156	-0.1105	0.1194	-0.1143
1272.0000	-0.1235	-0.1218	-0.0479	0.0812	-0.1242	-0.1235	-0.1134	0.4565	-0.1198	-0.1101	-0.0878	-0.1212	-0.1249	-0.1195	0.1285	-0.1222
1280.0000	-0.1268	-0.1250	-0.0507	0.0871	-0.1279	-0.1271	-0.1222	0.4603	-0.1240	-0.1155	-0.0833	-0.1281	-0.1281	-0.1235	0.1309	-0.1253
1288.0000	-0.1277	-0.1259	-0.0565	0.0921	-0.1289	-0.1283	-0.1273	0.4620	-0.1273	-0.1193	-0.0850	-0.1337	-0.1302	-0.1261	0.1251	-0.1272
1296.0000	-0.1235	-0.1217	-0.0614	0.1004	-0.1242	-0.1240	-0.1257	0.4651	-0.1274	-0.1190	-0.0872	-0.1356	-0.1296	-0.1254	0.1179	-0.1260
1304.0000	-0.1166	-0.1148	-0.0700	0.1071	-0.1170	-0.1173	-0.1218	0.4647	-0.1222	-0.1139	-0.0888	-0.1324	-0.1243	-0.1200	0.1092	-0.1200
1312.0000	-0.1095	-0.1077	-0.0845	0.1087	-0.1100	-0.1106	-0.1178	0.4579	-0.1152	-0.1080	-0.0949	-0.1273	-0.1171	-0.1131	0.0925	-0.1122
1320.0000	-0.1003	-0.0981	-0.0987	0.1108	-0.1009	-0.1013	-0.1093	0.4504	-0.1074	-0.1013	-0.1046	-0.1200	-0.1089	-0.1051	0.0696	-0.1038
1328.0000	-0.0920	-0.0897	-0.1087	0.1168	-0.0925	-0.0917	-0.0978	0.4464	-0.0974	-0.0911	-0.1110	-0.1091	-0.0987	-0.0948	0.0482	-0.0938
1336.0000	-0.0920	-0.0903	-0.1173	0.1221	-0.0927	-0.0903	-0.0920	0.4436	-0.0909	-0.0837	-0.1136	-0.1017	-0.0933	-0.0885	0.0282	-0.0877
1344.0000	-0.0974	-0.0962	-0.1246	0.1254	-0.0983	-0.0955	-0.0925	0.4413	-0.0935	-0.0861	-0.1160	-0.1042	-0.0974	-0.0918	0.0072	-0.0908
1352.0000	-0.0981	-0.0969	-0.1281	0.1300	-0.0989	-0.0968	-0.0927	0.4405	-0.0980	-0.0916	-0.1165	-0.1092	-0.1023	-0.0970	-0.0111	-0.0964
1360.0000	-0.0953	-0.0941	-0.1311	0.1338	-0.0960	-0.0943	-0.0922	0.4380	-0.0962	-0.0913	-0.1136	-0.1080	-0.1000	-0.0958	-0.0254	-0.0971
1368.0000	-0.0975	-0.0964	-0.1370	0.1329	-0.0979	-0.0960	-0.0941	0.4307	-0.0943	-0.0901	-0.1123	-0.1058	-0.0980	-0.0942	-0.0424	-0.0977
1376.0000	-0.1010	-0.0998	-0.1406	0.1319	-0.1015	-0.0994	-0.0944	0.4235	-0.0980	-0.0943	-0.1141	-0.1089	-0.1026	-0.0982	-0.0627	-0.1022
1384.0000	-0.0979	-0.0963	-0.1372	0.1362	-0.0985	-0.0969	-0.0902	0.4212	-0.0997	-0.0969	-0.1116	-0.1104	-0.1049	-0.1003	-0.0778	-0.1034
1392.0000	-0.0924	-0.0907	-0.1321	0.1415	-0.0932	-0.0919	-0.0863	0.4199	-0.0946	-0.0926	-0.1027	-0.1056	-0.0994	-0.0954	-0.0862	-0.0980
1400.0000	-0.0922	-0.0904	-0.1307	0.1429	-0.0925	-0.0915	-0.0844	0.4151	-0.0907	-0.0889	-0.0955	-0.1018	-0.0949	-0.0917	-0.0955	-0.0943
1408.0000	-0.0934	-0.0910	-0.1284	0.1447	-0.0929	-0.0923	-0.0795	0.4106	-0.0920	-0.0902	-0.0927	-0.1026	-0.0959	-0.0930	-0.1074	-0.0957
1416.0000	-0.0903	-0.0872	-0.1222	0.1503	-0.0897	-0.0894	-0.0725	0.4103	-0.0913	-0.0896	-0.0880	-0.1015	-0.0949	-0.0922	-0.1154	-0.0948
1424.0000	-0.0869	-0.0839	-0.1162	0.1554	-0.0867	-0.0864	-0.0691	0.4108	-0.0864	-0.0852	-0.0804	-0.0966	-0.0898	-0.0874	-0.1191	-0.0897
1432.0000	-0.0875	-0.0846	-0.1125	0.1577	-0.0869	-0.0864	-0.0679	0.4095	-0.0842	-0.0835	-0.0758	-0.0939	-0.0871	-0.0854	-0.1234	-0.0873
1440.0000	-0.0889	-0.0853	-0.1070	0.1614	-0.0871	-0.0864	-0.0645	0.4100	-0.0858	-0.0854	-0.0741	-0.0939	-0.0882	-0.0871	-0.1280	-0.0887
1448.0000	-0.0887	-0.0845	-0.0986	0.1677	-0.0862	-0.0854	-0.0601	0.4142	-0.0862	-0.0858	-0.0700	-0.0927	-0.0883	-0.0873	-0.1292	-0.0887
1456.0000	-0.0891	-0.0850	-0.0898	0.1739	-0.0866	-0.0860	-0.0564	0.4193	-0.0853	-0.0850	-0.0636	-0.0910	-0.0876	-0.0864	-0.1278	-0.0872
1464.0000	-0.0900	-0.0864	-0.0803	0.1798	-0.0875	-0.0876	-0.0520	0.4248	-0.0859	-0.0859	-0.0577	-0.0913	-0.0883	-0.0875	-0.1259	-0.0875
1472.0000	-0.0907	-0.0874	-0.0689	0.1865	-0.0882	-0.0888	-0.0500	0.4317	-0.0870	-0.0870	-0.0513	-0.0915	-0.0891	-0.0892	-0.1220	-0.0886
1480.0000	-0.0937	-0.0906	-0.0594	0.1911	-0.0915	-0.0918	-0.0545	0.4366	-0.0881	-0.0881	-0.0440	-0.0918	-0.0900	-0.0907	-0.1166	-0.0897
1488.0000	-0.0998	-0.0965	-0.0535	0.1923	-0.0975	-0.0973	-0.0611	0.4367	-0.0920	-0.0923	-0.0394	-0.0961	-0.0937	-0.0948	-0.1134	-0.0933
1496.0000	-0.1047	-0.1008	-0.0470	0.1932	-0.1020	-0.1009	-0.0642	0.4348	-0.0979	-0.0988	-0.0379	-0.1031	-0.0990	-0.1006	-0.1125	-0.0986
1504.0000	-0.1062	-0.1015	-0.0381	0.1957	-0.1034	-0.1009	-0.0680	0.4336	-0.1013	-0.1025	-0.0347	-0.1068	-0.1019	-0.1035	-0.1101	-0.1011
1512.0000	-0.1061	-0.1013	-0.0303	0.1969	-0.1039	-0.1003	-0.0755	0.4302	-0.1018	-0.1030	-0.0294	-0.1065	-0.1023	-0.1035	-0.1059	-0.1000
1520.0000	-0.1042	-0.0996	-0.0261	0.1952	-0.1020	-0.0989	-0.0801	0.4202	-0.1013	-0.1030	-0.0261	-0.1060	-0.1019	-0.1029	-0.1036	-0.0979
1528.0000	-0.0969	-0.0922	-0.0250	0.1916	-0.0938	-0.0926	-0.0772	0.4029	-0.0981	-0.1009	-0.0264	-0.1039	-0.0982	-0.0999	-0.1056	-0.0937
1536.0000	-0.0817	-0.0771	-0.0272	0.1863	-0.0787	-0.0789	-0.0695	0.3780	-0.0883	-0.0928	-0.0293	-0.0951	-0.0880	-0.0903	-0.1118	-0.0834
1544.0000	-0.0592	-0.0546	-0.0337	0.1786	-0.0571	-0.0582	-0.0558	0.3438	-0.0710	-0.0773	-0.0353	-0.0781	-0.0709	-0.0733	-0.1223	-0.0650
1552.0000	-0.0308	-0.0260	-0.0435	0.1686	-0.0289	-0.0310	-0.0319	0.3014	-0.0469	-0.0545	-0.0453	-0.0545	-0.0470	-0.0496	-0.1371	-0.0392
1560.0000	0.0014	0.0065	-0.0555	0.1567	0.0040	0.0007	-0.0021	0.2536	-0.0172	-0.0255	-0.0581	-0.0262	-0.0168	-0.0199	-0.1551	-0.0078
1568.0000	0.0348	0.0402	-0.0688	0.1428	0.0382	0.0342	0.0263	0.2021	0.0157	0.0067	-0.0725	0.0054	0.0167	0.0133	-0.1751	0.0263
1576.0000	0.0684	0.0739	-0.0822	0.1273	0.0718	0.0673	0.0531	0.1473	0.0498	0.0396	-0.0879	0.0393	0.0508	0.0473	-0.1957	0.0605
1584.0000	0.0996	0.1049	-0.0950	0.1106	0.1023	0.0977	0.0795	0.0911	0.0834	0.0724	-0.1030	0.0740	0.0842	0.0803	-0.2153	0.0930
1592.0000	0.1260	0.1306	-0.1074	0.0930	0.1278	0.1235	0.1035	0.0351	0.1132	0.1026	-0.1172	0.1054	0.1135	0.1098	-0.2341	0.1220
1600.0000	0.1497	0.1536	-0.1173	0.0769	0.1511	0.1474	0.1283	-0.0197	0.1379	0.1282	-0.1305	0.1316	0.1373	0.1347	-0.2519	0.1473
1608.0000	0.1745	0.1779	-0.1218	0.0652	0.1760	0.1724	0.1590	-0.0712	0.1618	0.1521	-0.1404	0.1566	0.1599	0.1583	-0.2659	0.1719
1616.0000	0.1982	0.2010	-0.1222	0.0561	0.1996	0.1956	0.1886	-0.1188	0.1872	0.1775	-0.1448	0.1830	0.1847	0.1827	-0.2739	0.1966
1624.0000	0.2161	0.2181	-0.1221	0.0465	0.2172	0.2126	0.2074	-0.1649	0.2094	0.2002	-0.1463	0.2063	0.2070	0.2043	-0.2784	0.2174
1632.0000	0.2298	0.2316	-0.1213	0.0366	0.2307	0.2259	0.2193	-0.2110	0.2255	0.2168	-0.1480	0.2230	0.2228	0.2201	-0.2822	0.2328
1640.0000	0.2440	0.2459	-0.1186	0.0279	0.2449	0.2401	0.2341	-0.2558	0.2398	0.2308	-0.1488	0.2372	0.2360	0.2340	-0.2845	0.2470
1648.0000	0.2580	0.2598	-0.1160	0.0188	0.2587	0.2541	0.2509	-0.2994	0.2549	0.2459	-0.1478	0.2523	0.2502	0.2490	-0.2850	0.2627
1656.0000	0.2695	0.2712	-0.1139	0.0090	0.2699	0.2651	0.2650	-0.3423	0.2679	0.2592	-0.1475	0.2659	0.2629	0.2622	-0.2858	0.2767
1664.0000	0.2806	0.2823	-0.1095	0.0008	0.2805	0.2753	0.2774	-0.3824	0.2785	0.2698	-0.1475	0.2769	0.2737	0.2724	-0.2865	0.2875
1672.0000	0.2922	0.2938	-0.1039	-0.0066	0.2914	0.2861	0.2887	-0.4199	0.2901	0.2809	-0.1452	0.2882	0.2853	0.2828	-0.2846	0.2980
1680.0000	0.3008	0.3023	-0.1018	-0.0175	0.2996	0.2950	0.2972	-0.4592	0.3016	0.2921	-0.1426	0.2995	0.2963	0.2938	-0.2821	0.3088
1688.0000	0.3064	0.3080	-0.1020	-0.0311	0.3053	0.3012	0.3055	-0.5005	0.3093	0.3000	-0.1439	0.3073	0.3038	0.3020	-0.2829	0.3172
1696.0000	0.3118	0.3136	-0.0980	-0.0420	0.3105	0.3069	0.3152	-0.5362	0.3148	0.3054	-0.1462	0.3122	0.3093	0.3074	-0.2842	0.3231
1704.0000	0.3145	0.3164	-0.0900	-0.0500	0.3127	0.3100	0.3209	-0.5626	0.3203	0.3105	-0.1437	0.3166	0.3145	0.3117	-0.2808	0.3277
1712.0000	0.3096	0.3115	-0.0826	-0.0599	0.3081	0.3060	0.3188	-0.5846	0.3215	0.3116	-0.1383	0.3172	0.3152	0.3122	-0.2739	0.3283
1720.0000	0.2984	0.3006	-0.0757	-0.0713	0.2982	0.2963	0.3130	-0.6042	0.3146	0.3052	-0.1348	0.3106	0.3085	0.3057	-0.2680	0.3223
1728.0000	0.2873	0.2898	-0.0644	-0.0792	0.2881	0.2862	0.3056	-0.6160	0.3033	0.2946	-0.1311	0.2998	0.2980	0.2948	-0.2616	0.3120
1736.0000	0.2789	0.2814	-0.0480	-0.0820	0.2798	0.2785	0.2956	-0.6190	0.2933	0.2848	-0.1222	0.2904	0.2887	0.2845	-0.2500	0.3018
1744.0000	0.2719	0.2746	-0.0294	-0.0825	0.2727	0.2722	0.2871	-0.6200	0.2859	0.2769	-0.1085	0.2834	0.2812	0.2765	-0.2337	0.2934
1752.0000	0.2655	0.2685	-0.0107	-0.0830	0.2660	0.2660	0.2839	-0.6225	0.2798	0.2705	-0.0936	0.2774	0.2752	0.2703	-0.2161	0.2867
1760.0000	0.2586	0.2618	0.0070	-0.0843	0.2587	0.2586	0.2802	-0.6252	0.2737	0.2645	-0.0790	0.2711	0.2692	0.2642	-0.1993	0.2806
1768.0000	0.2508	0.2541	0.0239	-0.0864	0.2511	0.2508	0.2712	-0.6281	0.2662	0.2571	-0.0657	0.2639	0.2615	0.2564	-0.1835	0.2733
1776.0000	0.2443	0.2477	0.0406	-0.0888	0.2453	0.2443	0.2614	-0.6337	0.2586	0.2487	-0.0538	0.2562	0.2537	0.2482	-0.1684	0.2652
1784.0000	0.2411	0.2441	0.0559	-0.0921	0.2415	0.2400	0.2539	-0.6434	0.2539	0.2430	-0.0422	0.2505	0.2495	0.2430	-0.1534	0.2592
1792.0000	0.2403	0.2428	0.0675	-0.0979	0.2393	0.2377	0.2470	-0.6586	0.2521	0.2406	-0.0322	0.2472	0.2481	0.2411	-0.1399	0.2567
1800.0000	0.2417	0.2443	0.0772	-0.1051	0.2406	0.2392	0.2442	-0.6809	0.2520	0.2398	-0.0263	0.2457	0.2472	0.2405	-0.1305	0.2569
1808.0000	0.2464	0.2492	0.0885	-0.1105	0.2459	0.2452	0.2499	-0.7073	0.2547	0.2418	-0.0223	0.2469	0.2494	0.2427	-0.1231	0.2597
1816.0000	0.2515	0.2535	0.1006	-0.1143	0.2501	0.2502	0.2574	-0.7330	0.2602	0.2474	-0.0156	0.2512	0.2555	0.2482	-0.1136	0.2649
1824.0000	0.2535	0.2548	0.1107	-0.1195	0.2510	0.2513	0.2590	-0.7596	0.2640	0.2521	-0.0080	0.2543	0.2597	0.2525	-0.1033	0.2680
1832.0000	0.2568	0.2584	0.1214	-0.1241	0.2547	0.2539	0.2604	-0.7937	0.2656	0.2541	-0.0030	0.2547	0.2605	0.2542	-0.0958	0.2667
1840.0000	0.2663	0.2680	0.1360	-0.1243	0.2645	0.2626	0.2687	-0.8385	0.2713	0.2593	0.0033	0.2582	0.2657	0.2594	-0.0885	0.2677
1848.0000	0.2756	0.2757	0.1520	-0.1223	0.2725	0.2709	0.2778	-0.8876	0.2820	0.2696	0.0151	0.2685	0.2764	0.2698	-0.0768	0.2779
1856.0000	0.2740	0.2712	0.1662	-0.1234	0.2719	0.2719	0.2805	-0.9248	0.2885	0.2767	0.0273	0.2773	0.2822	0.2768	-0.0645	0.2905
1864.0000	0.2630	0.2574	0.1812	-0.1261	0.2662	0.2679	0.2787	-0.9329	0.2861	0.2745	0.0347	0.2750	0.2785	0.2737	-0.0580	0.2931
1872.0000	0.2520	0.2449	0.1990	-0.1238	0.2592	0.2632	0.2735	-0.9126	0.2796	0.2676	0.0427	0.2653	0.2721	0.2651	-0.0550	0.2840
1880.0000	0.2425	0.2372	0.2173	-0.1153	0.2487	0.2555	0.2633	-0.8826	0.2706	0.2589	0.0578	0.2584	0.2652	0.2557	-0.0486	0.2711
1888.0000	0.2309	0.2291	0.2359	-0.1041	0.2334	0.2417	0.2512	-0.8533	0.2529	0.2453	0.0769	0.2550	0.2525	0.2430	-0.0372	0.2577
1896.0000	0.2190	0.2166	0.2572	-0.0926	0.2167	0.2242	0.2400	-0.8154	0.2263	0.2269	0.0944	0.2463	0.2346	0.2259	-0.0233	0.2402
1904.0000	0.2092	0.1999	0.2813	-0.0813	0.2002	0.2063	0.2260	-0.7708	0.2011	0.2094	0.1116	0.2262	0.2179	0.2087	-0.0064	0.2173
1912.0000	0.1978	0.1823	0.3060	-0.0721	0.1837	0.1899	0.2097	-0.7562	0.1844	0.1945	0.1310	0.1956	0.2022	0.1939	0.0142	0.1932
1920.0000	0.1826	0.1678	0.3312	-0.0662	0.1703	0.1769	0.1979	-0.8127	0.1734	0.1799	0.1512	0.1575	0.1841	0.1799	0.0366	0.1725
1928.0000	0.1688	0.1578	0.3567	-0.0629	0.1624	0.1681	0.1856	-0.9375	0.1643	0.1673	0.1707	0.1173	0.1674	0.1677	0.0592	0.1567
1936.0000	0.1600	0.1491	0.3802	-0.0620	0.1562	0.1602	0.1565	-1.0864	0.1564	0.1586	0.1896	0.0844	0.1570	0.1591	0.0820	0.1446
1944.0000	0.1517	0.1383	0.4012	-0.0634	0.1467	0.1494	0.1099	-1.2151	0.1485	0.1511	0.2072	0.0679	0.1489	0.1521	0.1043	0.1321
1952.0000	0.1401	0.1260	0.4219	-0.0646	0.1344	0.1364	0.0662	-1.3056	0.1383	0.1411	0.2226	0.0665	0.1372	0.1428	0.1245	0.1168
1960.0000	0.1276	0.1144	0.4415	-0.0645	0.1220	0.1233	0.0402	-1.3627	0.1264	0.1296	0.2370	0.0693	0.1238	0.1309	0.1429	0.1019
1968.0000	0.1174	0.1042	0.4561	-0.0659	0.1101	0.1107	0.0280	-1.3994	0.1146	0.1182	0.2499	0.0676	0.1122	0.1188	0.1585	0.0914
1976.0000	0.1087	0.0954	0.4647	-0.0703	0.0990	0.0994	0.0205	-1.4268	0.1036	0.1064	0.2580	0.0624	0.1018	0.1075	0.1684	0.0840
1984.0000	0.1009	0.0882	0.4711	-0.0746	0.0904	0.0906	0.0154	-1.4494	0.0937	0.0958	0.2610	0.0581	0.0919	0.0974	0.1726	0.0768
1992.0000	0.0947	0.0825	0.4769	-0.0761	0.0844	0.0839	0.0147	-1.4671	0.0864	0.0887	0.2628	0.0555	0.0846	0.0898	0.1755	0.0709
2000.0000	0.0895	0.0775	0.4805	-0.0773	0.0792	0.0777	0.0201	-1.4783	0.0813	0.0842	0.2650	0.0531	0.0800	0.0846	0.1791	0.0676
2008.0000	0.0832	0.0716	0.4812	-0.0800	0.0735	0.0713	0.0295	-1.4820	0.0760	0.0788	0.2653	0.0507	0.0754	0.0795	0.1814	0.0642
2016.0000	0.0747	0.0638	0.4800	-0.0825	0.0658	0.0645	0.0357	-1.4780	0.0687	0.0712	0.2626	0.0482	0.0688	0.0728	0.1811	0.0580
2024.0000	0.0644	0.0536	0.4774	-0.0839	0.0553	0.0557	0.0325	-1.4670	0.0597	0.0624	0.2591	0.0447	0.0604	0.0644	0.1804	0.0501
2032.0000	0.0530	0.0426	0.4734	-0.0852	0.0435	0.0450	0.0211	-1.4501	0.0491	0.0524	0.2553	0.0392	0.0502	0.0546	0.1801	0.0419
2040.0000	0.0416	0.0322	0.4687	-0.0858	0.0331	0.0345	0.0077	-1.4281	0.0375	0.0414	0.2503	0.0322	0.0386	0.0437	0.1794	0.0325
2048.0000	0.0317	0.0232	0.4648	-0.0833	0.0248	0.0254	-0.0024	-1.4065	0.0267	0.0307	0.2451	0.0250	0.0279	0.0331	0.1794	0.0227
2056.0000	0.0232	0.0147	0.4612	-0.0796	0.0167	0.0171	-0.0073	-1.3940	0.0179	0.0213	0.2419	0.0188	0.0194	0.0240	0.1824	0.0152
2064.0000	0.0149	0.0064	0.4559	-0.0781	0.0077	0.0085	-0.0107	-1.3914	0.0100	0.0128	0.2392	0.0138	0.0115	0.0161	0.1869	0.0094
2072.0000	0.0068	-0.0011	0.4479	-0.0790	-0.0005	0.0004	-0.0177	-1.3877	0.0012	0.0047	0.2342	0.0086	0.0031	0.0082	0.1888	0.0027
2080.0000	0.0023	-0.0049	0.4386	-0.0799	-0.0050	-0.0046	-0.0261	-1.3792	-0.0066	-0.0020	0.2268	0.0031	-0.0038	0.0008	0.1875	-0.0038
2088.0000	0.0036	-0.0028	0.4295	-0.0812	-0.0039	-0.0042	-0.0292	-1.3769	-0.0093	-0.0053	0.2194	0.0008	-0.0061	-0.0028	0.1852	-0.0059
2096.0000	0.0080	0.0028	0.4197	-0.0844	0.0005	-0.0000	-0.0286	-1.3828	-0.0063	-0.0041	0.2120	0.0044	-0.0031	-0.0008	0.1820	-0.0024
2104.0000	0.0107	0.0071	0.4085	-0.0892	0.0038	0.0035	-0.0318	-1.3803	-0.0022	-0.0001	0.2027	0.0107	0.0014	0.0042	0.1761	0.0037
2112.0000	0.0114	0.0094	0.3995	-0.0946	0.0055	0.0053	-0.0370	-1.3721	-0.0004	0.0032	0.1915	0.0156	0.0041	0.0078	0.1675	0.0091
2120.0000	0.0135	0.0123	0.3975	-0.0986	0.0081	0.0081	-0.0349	-1.3902	0.0010	0.0056	0.1819	0.0194	0.0063	0.0102	0.1591	0.0133
2128.0000	0.0159	0.0147	0.4047	-0.0993	0.0107	0.0110	-0.0247	-1.4285	0.0043	0.0086	0.1771	0.0240	0.0095	0.0131	0.1541	0.0172
2136.0000	0.0122	0.0109	0.4203	-0.0955	0.0074	0.0078	-0.0153	-1.4156	0.0060	0.0102	0.1778	0.0266	0.0104	0.0142	0.1543	0.0191
2144.0000	0.0007	-0.0002	0.4420	-0.0895	-0.0032	-0.0038	-0.0129	-1.3144	-0.0001	0.0052	0.1832	0.0226	0.0036	0.0086	0.1597	0.0142
2152.0000	-0.0120	-0.0120	0.4658	-0.0837	-0.0148	-0.0172	-0.0182	-1.1970	-0.0129	-0.0061	0.1906	0.0128	-0.0095	-0.0029	0.1676	0.0017
2160.0000	-0.0191	-0.0186	0.4878	-0.0788	-0.0215	-0.0252	-0.0277	-1.1438	-0.0245	-0.0172	0.1973	0.0027	-0.0209	-0.0137	0.1740	-0.0116
2168.0000	-0.0218	-0.0208	0.5077	-0.0739	-0.0240	-0.0280	-0.0343	-1.1304	-0.0295	-0.0234	0.2022	-0.0035	-0.0261	-0.0195	0.1777	-0.0189
2176.0000	-0.0226	-0.0207	0.5260	-0.0686	-0.0242	-0.0280	-0.0352	-1.1013	-0.0306	-0.0258	0.2066	-0.0054	-0.0274	-0.0222	0.1809	-0.0205
2184.0000	-0.0198	-0.0166	0.5396	-0.0639	-0.0207	-0.0246	-0.0372	-1.0788	-0.0303	-0.0251	0.2102	-0.0035	-0.0258	-0.0226	0.1837	-0.0185
2192.0000	-0.0120	-0.0082	0.5449	-0.0621	-0.0133	-0.0171	-0.0415	-1.0976	-0.0265	-0.0197	0.2099	0.0018	-0.0196	-0.0181	0.1827	-0.0111
2200.0000	-0.0036	0.0002	0.5440	-0.0628	-0.0062	-0.0088	-0.0366	-1.1112	-0.0182	-0.0113	0.2045	0.0092	-0.0101	-0.0096	0.1764	0.0006
2208.0000	0.0016	0.0052	0.5406	-0.0627	-0.0026	-0.0031	-0.0186	-1.0641	-0.0100	-0.0044	0.1960	0.0164	-0.0030	-0.0026	0.1672	0.0100
2216.0000	0.0025	0.0061	0.5345	-0.0607	-0.0031	-0.0019	-0.0053	-0.9682	-0.0058	-0.0006	0.1866	0.0217	-0.0003	-0.0001	0.1577	0.0140
2224.0000	-0.0060	-0.0023	0.5233	-0.0598	-0.0118	-0.0095	-0.0119	-0.8194	-0.0072	-0.0007	0.1755	0.0224	-0.0021	-0.0023	0.1474	0.0130
2232.0000	-0.0306	-0.0268	0.5080	-0.0609	-0.0350	-0.0313	-0.0311	-0.5590	-0.0194	-0.0111	0.1610	0.0127	-0.0144	-0.0138	0.1355	0.0012
2240.0000	-0.0659	-0.0617	0.4921	-0.0597	-0.0683	-0.0633	-0.0499	-0.2121	-0.0476	-0.0371	0.1443	-0.0117	-0.0427	-0.0404	0.1233	-0.0274
2248.0000	-0.0933	-0.0885	0.4769	-0.0538	-0.0945	-0.0903	-0.0662	0.0651	-0.0824	-0.0701	0.1284	-0.0430	-0.0775	-0.0738	0.1135	-0.0626
2256.0000	-0.1033	-0.0976	0.4605	-0.0467	-0.1035	-0.1024	-0.0791	0.1753	-0.1045	-0.0927	0.1147	-0.0648	-0.0996	-0.0959	0.1073	-0.0858
2264.0000	-0.1052	-0.0991	0.4395	-0.0415	-0.1041	-0.1059	-0.0852	0.1948	-0.1093	-0.0997	0.1008	-0.0706	-0.1042	-0.1011	0.1028	-0.0935
2272.0000	-0.1099	-0.1036	0.4117	-0.0378	-0.1081	-0.1108	-0.0877	0.2194	-0.1102	-0.1018	0.0833	-0.0710	-0.1046	-0.1020	0.0964	-0.0979
2280.0000	-0.1138	-0.1073	0.3782	-0.0358	-0.1125	-0.1158	-0.0917	0.2279	-0.1156	-0.1070	0.0617	-0.0752	-0.1089	-0.1074	0.0869	-0.1046
2288.0000	-0.1100	-0.1026	0.3408	-0.0358	-0.1091	-0.1136	-0.0921	0.1745	-0.1180	-0.1103	0.0382	-0.0779	-0.1103	-0.1106	0.0763	-0.1073
2296.0000	-0.1010	-0.0925	0.2994	-0.0363	-0.0997	-0.1054	-0.0831	0.0951	-0.1111	-0.1059	0.0139	-0.0721	-0.1031	-0.1047	0.0663	-0.1043
2304.0000	-0.0939	-0.0845	0.2542	-0.0364	-0.0918	-0.0980	-0.0712	0.0462	-0.1012	-0.0976	-0.0120	-0.0616	-0.0932	-0.0945	0.0565	-0.1012
2312.0000	-0.0900	-0.0799	0.2084	-0.0367	-0.0867	-0.0929	-0.0638	0.0289	-0.0951	-0.0910	-0.0384	-0.0532	-0.0869	-0.0869	0.0467	-0.1002
2320.0000	-0.0875	-0.0769	0.1655	-0.0346	-0.0826	-0.0882	-0.0574	0.0233	-0.0915	-0.0865	-0.0626	-0.0465	-0.0831	-0.0818	0.0388	-0.0979
2328.0000	-0.0865	-0.0755	0.1253	-0.0265	-0.0805	-0.0846	-0.0497	0.0314	-0.0885	-0.0825	-0.0826	-0.0400	-0.0806	-0.0783	0.0346	-0.0925
2336.0000	-0.0874	-0.0759	0.0861	-0.0155	-0.0817	-0.0840	-0.0460	0.0578	-0.0875	-0.0804	-0.0991	-0.0361	-0.0806	-0.0775	0.0333	-0.0864
2344.0000	-0.0896	-0.0775	0.0471	-0.0060	-0.0838	-0.0852	-0.0470	0.0948	-0.0887	-0.0810	-0.1133	-0.0360	-0.0822	-0.0788	0.0335	-0.0827
2352.0000	-0.0931	-0.0812	0.0082	0.0049	-0.0861	-0.0877	-0.0463	0.1373	-0.0904	-0.0829	-0.1257	-0.0373	-0.0837	-0.0806	0.0353	-0.0830
2360.0000	-0.0979	-0.0866	-0.0310	0.0202	-0.0899	-0.0923	-0.0461	0.1852	-0.0931	-0.0856	-0.1368	-0.0399	-0.0861	-0.0838	0.0388	-0.0862
2368.0000	-0.1017	-0.0908	-0.0708	0.0358	-0.0937	-0.0974	-0.0565	0.2350	-0.0969	-0.0898	-0.1464	-0.0441	-0.0905	-0.0886	0.0435	-0.0892
2376.0000	-0.1027	-0.0926	-0.1112	0.0487	-0.0951	-0.1002	-0.0739	0.2833	-0.0995	-0.0936	-0.1546	-0.0468	-0.0939	-0.0919	0.0485	-0.0898
2384.0000	-0.1031	-0.0947	-0.1530	0.0616	-0.0954	-0.1026	-0.0819	0.3290	-0.0999	-0.0952	-0.1620	-0.0464	-0.0947	-0.0928	0.0533	-0.0894
2392.0000	-0.1046	-0.0975	-0.1966	0.0742	-0.0970	-0.1072	-0.0765	0.3716	-0.1005	-0.0964	-0.1695	-0.0465	-0.0952	-0.0942	0.0566	-0.0899
2400.0000	-0.1054	-0.0986	-0.2403	0.0844	-0.0991	-0.1112	-0.0720	0.4168	-0.1022	-0.0986	-0.1772	-0.0496	-0.0971	-0.0970	0.0571	-0.0919
2408.0000	-0.1043	-0.0975	-0.2821	0.0961	-0.0996	-0.1118	-0.0775	0.4725	-0.1032	-0.1006	-0.1843	-0.0525	-0.0984	-0.0986	0.0553	-0.0953
2416.0000	-0.1030	-0.0966	-0.3203	0.1135	-0.0989	-0.1117	-0.0850	0.5306	-0.1028	-0.1009	-0.1897	-0.0531	-0.0984	-0.0984	0.0538	-0.0980
2424.0000	-0.1026	-0.0963	-0.3539	0.1316	-0.0975	-0.1124	-0.0841	0.5722	-0.1020	-0.1007	-0.1919	-0.0535	-0.0985	-0.0976	0.0549	-0.0973
2432.0000	-0.1015	-0.0950	-0.3841	0.1466	-0.0945	-0.1105	-0.0775	0.5932	-0.1008	-0.1001	-0.1909	-0.0534	-0.0981	-0.0956	0.0587	-0.0920
2440.0000	-0.0989	-0.0926	-0.4142	0.1625	-0.0906	-0.1057	-0.0725	0.6091	-0.0986	-0.0980	-0.1891	-0.0501	-0.0957	-0.0916	0.0630	-0.0850
2448.0000	-0.0962	-0.0901	-0.4466	0.1795	-0.0874	-0.1032	-0.0691	0.6338	-0.0960	-0.0952	-0.1896	-0.0453	-0.0924	-0.0879	0.0654	-0.0792
2456.0000	-0.0942	-0.0884	-0.4800	0.1924	-0.0849	-0.1032	-0.0628	0.6708	-0.0938	-0.0936	-0.1922	-0.0429	-0.0900	-0.0862	0.0651	-0.0753
2464.0000	-0.0926	-0.0888	-0.5119	0.2056	-0.0828	-0.1011	-0.0541	0.7181	-0.0920	-0.0924	-0.1952	-0.0413	-0.0885	-0.0852	0.0637	-0.0724
2472.0000	-0.0932	-0.0922	-0.5419	0.2276	-0.0833	-0.0994	-0.0486	0.7741	-0.0916	-0.0907	-0.1975	-0.0386	-0.0875	-0.0848	0.0634	-0.0704
2480.0000	-0.0988	-0.0993	-0.5691	0.2536	-0.0894	-0.1052	-0.0508	0.8402	-0.0944	-0.0914	-0.1990	-0.0392	-0.0890	-0.0881	0.0648	-0.0715
2488.0000	-0.1095	-0.1102	-0.5914	0.2787	-0.1008	-0.1133	-0.0602	0.9172	-0.1021	-0.0975	-0.1992	-0.0463	-0.0958	-0.0965	0.0667	-0.0780
2496.0000	-0.1225	-0.1245	-0.6071	0.3139	-0.1142	-0.1116	-0.0733	0.9943	-0.1138	-0.1073	-0.1970	-0.0567	-0.1075	-0.1076	0.0691	-0.0891
2504.0000	-0.1367	-0.1397	-0.6160	0.3624	-0.1269	-0.1036	-0.0868	1.0605	-0.1272	-0.1176	-0.1922	-0.0674	-0.1217	-0.1194	0.0729	-0.1023
2512.0000	-0.1539	-0.1540	-0.6189	0.4019	-0.1404	-0.1082	-0.1012	1.1310	-0.1407	-0.1306	-0.1855	-0.0796	-0.1368	-0.1329	0.0746	-0.1191
2520.0000	-0.1756	-0.1703	-0.6177	0.4191	-0.1589	-0.1333	-0.1184	1.2347	-0.1565	-0.1509	-0.1776	-0.0900	-0.1538	-0.1498	0.0676	-0.1425
2528.0000	-0.1995	-0.1915	-0.6147	0.4328	-0.1834	-0.1660	-0.1392	1.3682	-0.1772	-0.1762	-0.1688	-0.0910	-0.1746	-0.1706	0.0528	-0.1691
2536.0000	-0.2213	-0.2139	-0.6109	0.4603	-0.2080	-0.1923	-0.1611	1.4934	-0.2008	-0.1981	-0.1587	-0.0854	-0.1985	-0.1936	0.0400	-0.1908
2544.0000	-0.2384	-0.2307	-0.6059	0.4922	-0.2256	-0.2108	-0.1812	1.5851	-0.2212	-0.2126	-0.1477	-0.0874	-0.2205	-0.2155	0.0359	-0.2046
2552.0000	-0.2513	-0.2409	-0.5995	0.5178	-0.2363	-0.2259	-0.1963	1.6515	-0.2356	-0.2234	-0.1364	-0.1020	-0.2362	-0.2327	0.0368	-0.2123
2560.0000	-0.2622	-0.2501	-0.5917	0.5421	-0.2456	-0.2403	-0.2068	1.7082	-0.2463	-0.2342	-0.1249	-0.1190	-0.2468	-0.2440	0.0385	-0.2159
2568.0000	-0.2744	-0.2624	-0.5816	0.5678	-0.2568	-0.2557	-0.2185	1.7592	-0.2567	-0.2448	-0.1130	-0.1311	-0.2569	-0.2520	0.0412	-0.2214
2576.0000	-0.2884	-0.2770	-0.5671	0.5894	-0.2689	-0.2721	-0.2350	1.8052	-0.2690	-0.2554	-0.1019	-0.1442	-0.2693	-0.2610	0.0435	-0.2378
2584.0000	-0.3009	-0.2898	-0.5463	0.6069	-0.2799	-0.2859	-0.2494	1.8482	-0.2828	-0.2674	-0.0923	-0.1622	-0.2822	-0.2727	0.0420	-0.2620
2592.0000	-0.3093	-0.2985	-0.5195	0.6233	-0.2895	-0.2943	-0.2549	1.8884	-0.2947	-0.2800	-0.0811	-0.1783	-0.2926	-0.2845	0.0389	-0.2791
2600.0000	-0.3166	-0.3053	-0.4898	0.6337	-0.2982	-0.3015	-0.2587	1.9251	-0.3030	-0.2901	-0.0668	-0.1888	-0.3002	-0.2935	0.0398	-0.2853
2608.0000	-0.3260	-0.3135	-0.4596	0.6338	-0.3056	-0.3143	-0.2696	1.9544	-0.3106	-0.2984	-0.0527	-0.2004	-0.3079	-0.3008	0.0428	-0.2933
2616.0000	-0.3339	-0.3210	-0.4268	0.6272	-0.3093	-0.3317	-0.2810	1.9667	-0.3196	-0.3071	-0.0410	-0.2169	-0.3162	-0.3074	0.0431	-0.3089
2624.0000	-0.3346	-0.3230	-0.3899	0.6176	-0.3071	-0.3439	-0.2860	1.9558	-0.3249	-0.3134	-0.0277	-0.2326	-0.3208	-0.3109	0.0434	-0.3220
2632.0000	-0.3295	-0.3192	-0.3536	0.6102	-0.3005	-0.3415	-0.2957	1.9270	-0.3220	-0.3132	-0.0103	-0.2458	-0.3188	-0.3087	0.0498	-0.3263
2640.0000	-0.3233	-0.3131	-0.3237	0.6096	-0.2932	-0.3246	-0.3179	1.8905	-0.3146	-0.3091	0.0060	-0.2628	-0.3132	-0.3034	0.0594	-0.3265
2648.0000	-0.3161	-0.3051	-0.2998	0.6034	-0.2856	-0.3020	-0.3336	1.8534	-0.3080	-0.3053	0.0174	-0.2852	-0.3071	-0.2980	0.0655	-0.3241
2656.0000	-0.3055	-0.2941	-0.2789	0.5698	-0.2759	-0.2841	-0.3245	1.8212	-0.3008	-0.2993	0.0264	-0.3044	-0.2990	-0.2913	0.0677	-0.3156
2664.0000	-0.2944	-0.2836	-0.2619	0.5170	-0.2662	-0.2740	-0.3063	1.7963	-0.2906	-0.2883	0.0350	-0.3136	-0.2878	-0.2824	0.0680	-0.3039
2672.0000	-0.2866	-0.2773	-0.2496	0.4779	-0.2600	-0.2659	-0.3027	1.7794	-0.2808	-0.2768	0.0405	-0.3143	-0.2774	-0.2751	0.0646	-0.2944
2680.0000	-0.2806	-0.2730	-0.2389	0.4560	-0.2568	-0.2536	-0.3068	1.7732	-0.2746	-0.2692	0.0435	-0.3094	-0.2708	-0.2708	0.0568	-0.2857
2688.0000	-0.2735	-0.2670	-0.2274	0.4222	-0.2536	-0.2395	-0.2999	1.7815	-0.2693	-0.2625	0.0481	-0.3007	-0.2659	-0.2663	0.0481	-0.2767
2696.0000	-0.2665	-0.2607	-0.2174	0.3757	-0.2505	-0.2320	-0.2873	1.8008	-0.2631	-0.2537	0.0546	-0.2907	-0.2600	-0.2601	0.0398	-0.2722
2704.0000	-0.2620	-0.2565	-0.2098	0.3525	-0.2502	-0.2337	-0.2856	1.8254	-0.2583	-0.2463	0.0593	-0.2801	-0.2544	-0.2560	0.0296	-0.2730
2712.0000	-0.2601	-0.2538	-0.2028	0.3653	-0.2527	-0.2385	-0.2929	1.8542	-0.2560	-0.2425	0.0626	-0.2678	-0.2513	-0.2558	0.0183	-0.2730
2720.0000	-0.2594	-0.2514	-0.1964	0.3844	-0.2545	-0.2392	-0.2959	1.8854	-0.2549	-0.2400	0.0663	-0.2563	-0.2508	-0.2565	0.0080	-0.2703
2728.0000	-0.2581	-0.2488	-0.1928	0.3869	-0.2527	-0.2348	-0.2922	1.9130	-0.2538	-0.2385	0.0690	-0.2491	-0.2514	-0.2555	-0.0029	-0.2666
2736.0000	-0.2534	-0.2440	-0.1920	0.3805	-0.2469	-0.2279	-0.2875	1.9364	-0.2515	-0.2391	0.0687	-0.2429	-0.2499	-0.2523	-0.0166	-0.2602
2744.0000	-0.2460	-0.2361	-0.1938	0.3762	-0.2396	-0.2203	-0.2836	1.9596	-0.2461	-0.2376	0.0671	-0.2329	-0.2443	-0.2466	-0.0314	-0.2505
2752.0000	-0.2383	-0.2266	-0.1996	0.3725	-0.2328	-0.2117	-0.2794	1.9776	-0.2383	-0.2298	0.0641	-0.2233	-0.2366	-0.2391	-0.0461	-0.2431
2760.0000	-0.2288	-0.2151	-0.2081	0.3621	-0.2235	-0.2005	-0.2726	1.9819	-0.2302	-0.2204	0.0577	-0.2188	-0.2285	-0.2305	-0.0621	-0.2384
2768.0000	-0.2131	-0.1994	-0.2149	0.3394	-0.2077	-0.1860	-0.2589	1.9765	-0.2191	-0.2145	0.0501	-0.2139	-0.2171	-0.2188	-0.0784	-0.2282
2776.0000	-0.1942	-0.1824	-0.2191	0.3066	-0.1895	-0.1718	-0.2397	1.9708	-0.2022	-0.2079	0.0454	-0.2035	-0.1999	-0.2024	-0.0922	-0.2112
2784.0000	-0.1812	-0.1716	-0.2252	0.2771	-0.1774	-0.1613	-0.2259	1.9653	-0.1846	-0.1955	0.0419	-0.1959	-0.1829	-0.1860	-0.1056	-0.1970
2792.0000	-0.1758	-0.1683	-0.2349	0.2601	-0.1722	-0.1521	-0.2232	1.9599	-0.1741	-0.1814	0.0344	-0.1972	-0.1729	-0.1764	-0.1240	-0.1904
2800.0000	-0.1714	-0.1663	-0.2448	0.2477	-0.1678	-0.1404	-0.2218	1.9619	-0.1699	-0.1718	0.0240	-0.1990	-0.1677	-0.1723	-0.1467	-0.1862
2808.0000	-0.1640	-0.1612	-0.2527	0.2333	-0.1610	-0.1300	-0.2107	1.9704	-0.1649	-0.1653	0.0152	-0.1925	-0.1617	-0.1676	-0.1690	-0.1823
2816.0000	-0.1548	-0.1538	-0.2580	0.2242	-0.1530	-0.1269	-0.1925	1.9727	-0.1568	-0.1579	0.0092	-0.1829	-0.1542	-0.1605	-0.1886	-0.1805
2824.0000	-0.1440	-0.1447	-0.2606	0.2238	-0.1436	-0.1276	-0.1759	1.9601	-0.1469	-0.1491	0.0056	-0.1771	-0.1463	-0.1522	-0.2052	-0.1775
2832.0000	-0.1309	-0.1342	-0.2627	0.2197	-0.1317	-0.1240	-0.1622	1.9338	-0.1359	-0.1400	0.0044	-0.1731	-0.1368	-0.1427	-0.2183	-0.1691
2840.0000	-0.1166	-0.1236	-0.2687	0.2042	-0.1195	-0.1158	-0.1487	1.8957	-0.1246	-0.1301	0.0030	-0.1699	-0.1258	-0.1317	-0.2305	-0.1581
2848.0000	-0.1015	-0.1122	-0.2782	0.1869	-0.1075	-0.1067	-0.1350	1.8509	-0.1141	-0.1194	-0.0019	-0.1724	-0.1152	-0.1206	-0.2445	-0.1477
2856.0000	-0.0834	-0.0975	-0.2863	0.1748	-0.0928	-0.0951	-0.1201	1.8081	-0.1023	-0.1075	-0.0078	-0.1815	-0.1032	-0.1087	-0.2572	-0.1359
2864.0000	-0.0634	-0.0811	-0.2917	0.1630	-0.0750	-0.0806	-0.1019	1.7647	-0.0867	-0.0925	-0.0103	-0.1906	-0.0867	-0.0934	-0.2638	-0.1234
2872.0000	-0.0462	-0.0667	-0.2975	0.1488	-0.0586	-0.0695	-0.0817	1.7090	-0.0694	-0.0753	-0.0102	-0.1956	-0.0687	-0.0764	-0.2660	-0.1144
2880.0000	-0.0325	-0.0545	-0.3034	0.1369	-0.0458	-0.0638	-0.0650	1.6423	-0.0543	-0.0594	-0.0103	-0.1967	-0.0547	-0.0621	-0.2687	-0.1056
2888.0000	-0.0195	-0.0430	-0.3077	0.1274	-0.0349	-0.0569	-0.0520	1.5747	-0.0415	-0.0463	-0.0094	-0.1944	-0.0439	-0.0507	-0.2725	-0.0897
2896.0000	-0.0072	-0.0344	-0.3128	0.1158	-0.0250	-0.0460	-0.0345	1.5027	-0.0303	-0.0349	-0.0069	-0.1901	-0.0331	-0.0403	-0.2761	-0.0707
2904.0000	0.0030	-0.0288	-0.3204	0.1027	-0.0165	-0.0361	-0.0069	1.4221	-0.0213	-0.0255	-0.0054	-0.1860	-0.0232	-0.0314	-0.2812	-0.0591
2912.0000	0.0129	-0.0214	-0.3278	0.0914	-0.0080	-0.0274	0.0233	1.3449	-0.0135	-0.0177	-0.0055	-0.1806	-0.0148	-0.0240	-0.2875	-0.0543
2920.0000	0.0260	-0.0088	-0.3336	0.0781	0.0037	-0.0138	0.0443	1.2538	-0.0031	-0.0089	-0.0042	-0.1701	-0.0048	-0.0152	-0.2918	-0.0459
2928.0000	0.0458	0.0106	-0.3409	0.0529	0.0225	0.0080	0.0574	1.0635	0.0118	0.0036	-0.0025	-0.1543	0.0105	-0.0018	-0.2946	-0.0276
2936.0000	0.0775	0.0415	-0.3496	0.0113	0.0540	0.0402	0.0783	0.6990	0.0346	0.0233	-0.0040	-0.1329	0.0344	0.0198	-0.2997	0.0019
2944.0000	0.1229	0.0866	-0.3541	-0.0405	0.0991	0.0855	0.1173	0.2109	0.0710	0.0562	-0.0064	-0.1002	0.0710	0.0553	-0.3044	0.0439
2952.0000	0.1715	0.1356	-0.3531	-0.0921	0.1473	0.1368	0.1668	-0.2572	0.1195	0.1024	-0.0039	-0.0540	0.1184	0.1035	-0.3025	0.0946
2960.0000	0.2090	0.1735	-0.3520	-0.1382	0.1847	0.1777	0.2109	-0.6140	0.1663	0.1498	0.0020	-0.0050	0.1638	0.1513	-0.2949	0.1426
2968.0000	0.2323	0.1976	-0.3538	-0.1797	0.2087	0.2029	0.2422	-0.8740	0.1995	0.1849	0.0050	0.0337	0.1956	0.1854	-0.2884	0.1796
2976.0000	0.2481	0.2152	-0.3554	-0.2172	0.2260	0.2209	0.2632	-1.0745	0.2214	0.2078	0.0042	0.0609	0.2158	0.2070	-0.2849	0.2066
2984.0000	0.2595	0.2292	-0.3549	-0.2488	0.2391	0.2359	0.2777	-1.2208	0.2384	0.2253	0.0030	0.0824	0.2313	0.2234	-0.2809	0.2273
2992.0000	0.2657	0.2383	-0.3535	-0.2746	0.2469	0.2445	0.2869	-1.3195	0.2503	0.2386	0.0016	0.0998	0.2429	0.2359	-0.2751	0.2418
3000.0000	0.2693	0.2447	-0.3495	-0.2959	0.2517	0.2492	0.2919	-1.3955	0.2563	0.2464	-0.0013	0.1123	0.2496	0.2431	-0.2686	0.2509
3008.0000	0.2721	0.2499	-0.3402	-0.3121	0.2555	0.2545	0.2943	-1.4577	0.2605	0.2518	-0.0032	0.1214	0.2539	0.2483	-0.2593	0.2571
3016.0000	0.2704	0.2500	-0.3267	-0.3235	0.2549	0.2553	0.2944	-1.4977	0.2634	0.2559	-0.0022	0.1284	0.2564	0.2525	-0.2459	0.2600
3024.0000	0.2615	0.2435	-0.3126	-0.3334	0.2473	0.2470	0.2913	-1.5236	0.2601	0.2544	-0.0012	0.1307	0.2530	0.2510	-0.2316	0.2573
3032.0000	0.2503	0.2352	-0.2976	-0.3435	0.2377	0.2368	0.2858	-1.5508	0.2505	0.2460	-0.0026	0.1270	0.2436	0.2423	-0.2193	0.2484
3040.0000	0.2417	0.2291	-0.2792	-0.3508	0.2308	0.2308	0.2788	-1.5726	0.2408	0.2367	-0.0041	0.1216	0.2343	0.2326	-0.2065	0.2364
3048.0000	0.2343	0.2237	-0.2582	-0.3548	0.2246	0.2247	0.2707	-1.5805	0.2341	0.2302	-0.0031	0.1184	0.2282	0.2260	-0.1907	0.2246
3056.0000	0.2252	0.2171	-0.2375	-0.3591	0.2165	0.2155	0.2618	-1.5879	0.2271	0.2239	-0.0019	0.1158	0.2220	0.2198	-0.1743	0.2142
3064.0000	0.2159	0.2106	-0.2163	-0.3640	0.2082	0.2076	0.2535	-1.6016	0.2185	0.2156	-0.0029	0.1114	0.2138	0.2118	-0.1598	0.2050
3072.0000	0.2085	0.2048	-0.1922	-0.3661	0.2019	0.2019	0.2464	-1.6070	0.2107	0.2075	-0.0038	0.1070	0.2060	0.2041	-0.1453	0.1977
3080.0000	0.2019	0.1984	-0.1674	-0.3663	0.1958	0.1949	0.2377	-1.6028	0.2046	0.2012	-0.0029	0.1036	0.1998	0.1977	-0.1292	0.1931
3088.0000	0.1944	0.1909	-0.1454	-0.3681	0.1879	0.1874	0.2240	-1.6060	0.1978	0.1947	-0.0032	0.0978	0.1931	0.1906	-0.1139	0.1896
3096.0000	0.1871	0.1837	-0.1242	-0.3696	0.1799	0.1822	0.2072	-1.6133	0.1899	0.1874	-0.0065	0.0890	0.1850	0.1826	-0.1018	0.1849
3104.0000	0.1819	0.1783	-0.0997	-0.3661	0.1738	0.1780	0.1931	-1.6080	0.1831	0.1810	-0.0094	0.0823	0.1775	0.1760	-0.0898	0.1803
3112.0000	0.1777	0.1746	-0.0729	-0.3585	0.1688	0.1736	0.1840	-1.5975	0.1784	0.1770	-0.0087	0.0806	0.1723	0.1716	-0.0744	0.1786
3120.0000	0.1710	0.1699	-0.0480	-0.3505	0.1625	0.1693	0.1768	-1.5952	0.1735	0.1731	-0.0068	0.0791	0.1679	0.1672	-0.0573	0.1780
3128.0000	0.1608	0.1630	-0.0248	-0.3419	0.1543	0.1627	0.1682	-1.5895	0.1660	0.1663	-0.0068	0.0744	0.1615	0.1608	-0.0413	0.1734
3136.0000	0.1496	0.1550	-0.0016	-0.3314	0.1453	0.1525	0.1583	-1.5725	0.1565	0.1572	-0.0079	0.0693	0.1529	0.1525	-0.0257	0.1642
3144.0000	0.1392	0.1470	0.0193	-0.3218	0.1358	0.1423	0.1485	-1.5604	0.1468	0.1481	-0.0091	0.0650	0.1438	0.1437	-0.0094	0.1541
3152.0000	0.1289	0.1373	0.0354	-0.3154	0.1260	0.1339	0.1384	-1.5581	0.1370	0.1388	-0.0127	0.0581	0.1347	0.1349	0.0054	0.1440
3160.0000	0.1190	0.1266	0.0490	-0.3098	0.1172	0.1245	0.1276	-1.5502	0.1265	0.1286	-0.0197	0.0481	0.1255	0.1258	0.0173	0.1335
3168.0000	0.1117	0.1188	0.0629	-0.3027	0.1106	0.1151	0.1177	-1.5398	0.1170	0.1194	-0.0272	0.0393	0.1174	0.1174	0.0281	0.1252
3176.0000	0.1073	0.1151	0.0759	-0.2950	0.1055	0.1101	0.1110	-1.5415	0.1107	0.1135	-0.0331	0.0333	0.1118	0.1116	0.0395	0.1206
3184.0000	0.1038	0.1121	0.0875	-0.2875	0.1010	0.1072	0.1066	-1.5462	0.1068	0.1091	-0.0391	0.0281	0.1075	0.1080	0.0504	0.1153
3192.0000	0.1002	0.1083	0.0994	-0.2800	0.0979	0.1029	0.1023	-1.5444	0.1032	0.1043	-0.0459	0.0242	0.1032	0.1049	0.0600	0.1070
3200.0000	0.0969	0.1050	0.1116	-0.2730	0.0962	0.1004	0.0995	-1.5510	0.0998	0.1005	-0.0525	0.0233	0.0993	0.1020	0.0681	0.1005
3208.0000	0.0934	0.1024	0.1214	-0.2677	0.0943	0.1009	0.1015	-1.5686	0.0970	0.0979	-0.0594	0.0231	0.0964	0.1001	0.0736	0.0987
3216.0000	0.0904	0.1004	0.1296	-0.2620	0.0924	0.0999	0.1058	-1.5749	0.0944	0.0954	-0.0672	0.0219	0.0940	0.0986	0.0763	0.0987
3224.0000	0.0900	0.1010	0.1386	-0.2537	0.0920	0.0975	0.1046	-1.5711	0.0932	0.0939	-0.0745	0.0212	0.0926	0.0970	0.0777	0.0994
3232.0000	0.0910	0.1029	0.1476	-0.2434	0.0917	0.0979	0.0964	-1.5767	0.0942	0.0947	-0.0802	0.0206	0.0933	0.0960	0.0781	0.1011
3240.0000	0.0905	0.1023	0.1560	-0.2323	0.0893	0.0974	0.0893	-1.5807	0.0952	0.0951	-0.0851	0.0173	0.0938	0.0952	0.0763	0.0989
3248.0000	0.0887	0.0995	0.1670	-0.2180	0.0863	0.0923	0.0889	-1.5660	0.0937	0.0926	-0.0880	0.0142	0.0918	0.0932	0.0740	0.0897
3256.0000	0.0878	0.0976	0.1813	-0.1993	0.0843	0.0880	0.0898	-1.5507	0.0916	0.0901	-0.0865	0.0169	0.0891	0.0906	0.0751	0.0804
3264.0000	0.0861	0.0954	0.1938	-0.1801	0.0806	0.0861	0.0850	-1.5465	0.0903	0.0888	-0.0820	0.0222	0.0874	0.0883	0.0783	0.0779
3272.0000	0.0823	0.0905	0.2024	-0.1632	0.0736	0.0792	0.0770	-1.5325	0.0869	0.0846	-0.0787	0.0247	0.0842	0.0842	0.0794	0.0756
3280.0000	0.0796	0.0862	0.2111	-0.1452	0.0674	0.0695	0.0716	-1.5087	0.0811	0.0774	-0.0761	0.0297	0.0786	0.0776	0.0788	0.0661
3288.0000	0.0793	0.0855	0.2213	-0.1233	0.0650	0.0674	0.0687	-1.5010	0.0770	0.0728	-0.0709	0.0447	0.0747	0.0721	0.0802	0.0552
3296.0000	0.0782	0.0845	0.2293	-0.1015	0.0639	0.0695	0.0646	-1.5009	0.0761	0.0718	-0.0634	0.0608	0.0736	0.0701	0.0829	0.0516
3304.0000	0.0756	0.0816	0.2336	-0.0824	0.0630	0.0668	0.0588	-1.4871	0.0749	0.0702	-0.0573	0.0632	0.0724	0.0694	0.0835	0.0537
3312.0000	0.0756	0.0809	0.2367	-0.0633	0.0653	0.0662	0.0549	-1.4792	0.0739	0.0687	-0.0528	0.0524	0.0715	0.0689	0.0837	0.0572
3320.0000	0.0783	0.0834	0.2392	-0.0430	0.0704	0.0741	0.0563	-1.4900	0.0763	0.0714	-0.0480	0.0410	0.0739	0.0715	0.0866	0.0640
3328.0000	0.0799	0.0845	0.2391	-0.0251	0.0745	0.0793	0.0614	-1.4893	0.0806	0.0760	-0.0428	0.0342	0.0782	0.0771	0.0909	0.0737
3336.0000	0.0813	0.0850	0.2352	-0.0107	0.0770	0.0770	0.0657	-1.4766	0.0831	0.0785	-0.0396	0.0289	0.0810	0.0814	0.0925	0.0809
3344.0000	0.0862	0.0895	0.2275	0.0027	0.0811	0.0805	0.0673	-1.4881	0.0854	0.0809	-0.0393	0.0268	0.0838	0.0836	0.0907	0.0836
3352.0000	0.0936	0.0965	0.2167	0.0166	0.0870	0.0906	0.0700	-1.5069	0.0904	0.0857	-0.0413	0.0319	0.0890	0.0875	0.0882	0.0858
3360.0000	0.1006	0.1020	0.2039	0.0302	0.0934	0.0941	0.0769	-1.4943	0.0964	0.0911	-0.0434	0.0425	0.0950	0.0939	0.0871	0.0898
3368.0000	0.1066	0.1068	0.1884	0.0442	0.0992	0.0958	0.0841	-1.4829	0.1018	0.0963	-0.0446	0.0549	0.1003	0.1001	0.0875	0.0954
3376.0000	0.1094	0.1096	0.1676	0.0585	0.1019	0.1049	0.0862	-1.5018	0.1067	0.1020	-0.0472	0.0661	0.1049	0.1045	0.0865	0.1014
3384.0000	0.1075	0.1078	0.1425	0.0722	0.1006	0.1080	0.0848	-1.4966	0.1087	0.1045	-0.0533	0.0708	0.1065	0.1064	0.0814	0.1048
3392.0000	0.1065	0.1065	0.1180	0.0878	0.1002	0.1000	0.0851	-1.4502	0.1071	0.1029	-0.0600	0.0658	0.1048	0.1053	0.0750	0.1045
3400.0000	0.1109	0.1116	0.0941	0.1073	0.1039	0.1026	0.0868	-1.4304	0.1077	0.1037	-0.0639	0.0584	0.1053	0.1045	0.0719	0.1046
3408.0000	0.1132	0.1145	0.0669	0.1279	0.1056	0.1142	0.0859	-1.4223	0.1116	0.1078	-0.0674	0.0567	0.1092	0.1069	0.0708	0.1071
3416.0000	0.1074	0.1073	0.0368	0.1473	0.1012	0.1052	0.0824	-1.3418	0.1110	0.1069	-0.0732	0.0562	0.1084	0.1078	0.0681	0.1065
3424.0000	0.1022	0.1012	0.0068	0.1666	0.0984	0.0901	0.0810	-1.2487	0.1048	0.1014	-0.0791	0.0539	0.1025	0.1023	0.0651	0.1010
3432.0000	0.1003	0.1022	-0.0257	0.1820	0.0985	0.1140	0.0813	-1.2280	0.1023	0.1008	-0.0837	0.0579	0.1006	0.0935	0.0635	0.0986
3440.0000	0.0825	0.0877	-0.0641	0.1898	0.0832	0.1465	0.0733	-1.0832	0.0992	0.0982	-0.0914	0.0631	0.0973	0.0827	0.0576	0.0968
3448.0000	0.0363	0.0409	-0.1048	0.1980	0.0405	0.1064	0.0469	-0.5640	0.0734	0.0712	-0.1046	0.0389	0.0703	0.0595	0.0422	0.0753
3456.0000	-0.0166	-0.0138	-0.1433	0.2140	-0.0108	0.0056	0.0058	0.1406	0.0214	0.0196	-0.1180	-0.0251	0.0176	0.0191	0.0234	0.0258
3464.0000	-0.0468	-0.0425	-0.1811	0.2268	-0.0420	-0.0559	-0.0328	0.5936	-0.0275	-0.0281	-0.1279	-0.0881	-0.0300	-0.0220	0.0105	-0.0267
3472.0000	-0.0553	-0.0489	-0.2197	0.2259	-0.0507	-0.0474	-0.0549	0.7307	-0.0496	-0.0518	-0.1368	-0.1091	-0.0502	-0.0452	0.0028	-0.0532
3480.0000	-0.0615	-0.0560	-0.2558	0.2234	-0.0546	-0.0326	-0.0637	0.8364	-0.0548	-0.0603	-0.1461	-0.1030	-0.0549	-0.0531	-0.0062	-0.0559
3488.0000	-0.0690	-0.0648	-0.2881	0.2285	-0.0605	-0.0438	-0.0693	1.0061	-0.0610	-0.0685	-0.1539	-0.1078	-0.0621	-0.0588	-0.0177	-0.0550
3496.0000	-0.0669	-0.0618	-0.3181	0.2265	-0.0595	-0.0500	-0.0728	1.0856	-0.0660	-0.0764	-0.1602	-0.1257	-0.0673	-0.0626	-0.0290	-0.0560
3504.0000	-0.0551	-0.0490	-0.3432	0.2106	-0.0487	-0.0398	-0.0691	1.0452	-0.0601	-0.0765	-0.1662	-0.1353	-0.0604	-0.0581	-0.0385	-0.0496
3512.0000	-0.0447	-0.0393	-0.3599	0.1974	-0.0370	-0.0342	-0.0607	1.0077	-0.0474	-0.0668	-0.1694	-0.1352	-0.0469	-0.0479	-0.0452	-0.0352
3520.0000	-0.0389	-0.0338	-0.3713	0.1833	-0.0293	-0.0333	-0.0544	0.9884	-0.0382	-0.0523	-0.1691	-0.1378	-0.0376	-0.0392	-0.0499	-0.0227
3528.0000	-0.0292	-0.0236	-0.3804	0.1363	-0.0189	-0.0263	-0.0470	0.9098	-0.0315	-0.0377	-0.1690	-0.1421	-0.0307	-0.0307	-0.0559	-0.0153
3536.0000	-0.0110	-0.0059	-0.3820	0.0583	-0.0009	-0.0223	-0.0296	0.7790	-0.0188	-0.0229	-0.1696	-0.1405	-0.0177	-0.0164	-0.0629	-0.0056
3544.0000	0.0091	0.0126	-0.3717	-0.0008	0.0188	-0.0244	-0.0048	0.6509	0.0009	-0.0054	-0.1642	-0.1336	0.0015	0.0022	-0.0653	0.0101
3552.0000	0.0224	0.0252	-0.3559	-0.0177	0.0315	-0.0141	0.0151	0.5290	0.0190	0.0125	-0.1511	-0.1243	0.0189	0.0182	-0.0605	0.0260
3560.0000	0.0287	0.0315	-0.3413	-0.0248	0.0375	0.0107	0.0252	0.4159	0.0292	0.0246	-0.1372	-0.1136	0.0290	0.0279	-0.0545	0.0367
3568.0000	0.0325	0.0352	-0.3259	-0.0481	0.0413	0.0278	0.0317	0.3474	0.0335	0.0294	-0.1266	-0.1057	0.0337	0.0334	-0.0518	0.0430
3576.0000	0.0349	0.0378	-0.3069	-0.0748	0.0435	0.0306	0.0383	0.3238	0.0363	0.0302	-0.1160	-0.1022	0.0367	0.0367	-0.0497	0.0465
3584.0000	0.0337	0.0376	-0.2868	-0.0924	0.0423	0.0323	0.0413	0.3141	0.0377	0.0301	-0.1034	-0.0995	0.0380	0.0379	-0.0455	0.0463
3592.0000	0.0296	0.0342	-0.2676	-0.1036	0.0387	0.0341	0.0391	0.3253	0.0361	0.0316	-0.0915	-0.0999	0.0363	0.0371	-0.0413	0.0439
3600.0000	0.0246	0.0297	-0.2476	-0.1005	0.0338	0.0278	0.0347	0.3793	0.0323	0.0360	-0.0809	-0.1109	0.0323	0.0342	-0.0392	0.0418
3608.0000	0.0182	0.0246	-0.2271	-0.0766	0.0271	0.0183	0.0301	0.4562	0.0271	0.0380	-0.0701	-0.1302	0.0267	0.0287	-0.0376	0.0385
3616.0000	0.0105	0.0181	-0.2079	-0.0523	0.0191	0.0129	0.0249	0.5305	0.0203	0.0310	-0.0595	-0.1491	0.0197	0.0212	-0.0353	0.0318
3624.0000	0.0027	0.0103	-0.1891	-0.0486	0.0111	0.0067	0.0186	0.6208	0.0124	0.0181	-0.0501	-0.1685	0.0118	0.0141	-0.0333	0.0241
3632.0000	-0.0076	-0.0001	-0.1689	-0.0535	-0.0003	-0.0064	0.0093	0.7611	0.0034	0.0065	-0.0407	-0.1918	0.0029	0.0059	-0.0322	0.0158
3640.0000	-0.0241	-0.0159	-0.1484	-0.0470	-0.0183	-0.0233	-0.0056	0.9574	-0.0097	-0.0055	-0.0310	-0.2157	-0.0097	-0.0078	-0.0320	0.0013
3648.0000	-0.0440	-0.0352	-0.1274	-0.0343	-0.0387	-0.0408	-0.0246	1.1817	-0.0282	-0.0235	-0.0222	-0.2399	-0.0276	-0.0272	-0.0326	-0.0204
3656.0000	-0.0601	-0.0517	-0.1040	-0.0292	-0.0543	-0.0568	-0.0418	1.3810	-0.0472	-0.0434	-0.0134	-0.2673	-0.0462	-0.0462	-0.0331	-0.0394
3664.0000	-0.0714	-0.0634	-0.0797	-0.0319	-0.0652	-0.0679	-0.0552	1.5124	-0.0613	-0.0579	-0.0027	-0.2909	-0.0606	-0.0602	-0.0319	-0.0487
3672.0000	-0.0825	-0.0743	-0.0578	-0.0385	-0.0757	-0.0747	-0.0674	1.5858	-0.0719	-0.0686	0.0082	-0.3037	-0.0717	-0.0705	-0.0305	-0.0545
3680.0000	-0.0939	-0.0854	-0.0372	-0.0468	-0.0859	-0.0830	-0.0786	1.6420	-0.0825	-0.0792	0.0166	-0.3170	-0.0831	-0.0800	-0.0310	-0.0643
3688.0000	-0.1022	-0.0931	-0.0133	-0.0492	-0.0934	-0.0921	-0.0862	1.6901	-0.0933	-0.0881	0.0243	-0.3399	-0.0945	-0.0884	-0.0321	-0.0759
3696.0000	-0.1060	-0.0951	0.0146	-0.0410	-0.0980	-0.0960	-0.0912	1.7110	-0.1019	-0.0929	0.0348	-0.3601	-0.1027	-0.0947	-0.0312	-0.0835
3704.0000	-0.1069	-0.0935	0.0428	-0.0302	-0.1008	-0.0962	-0.0973	1.7107	-0.1065	-0.0953	0.0474	-0.3702	-0.1064	-0.0980	-0.0290	-0.0870
3712.0000	-0.1075	-0.0915	0.0690	-0.0233	-0.1030	-0.0982	-0.1048	1.7155	-0.1075	-0.0967	0.0587	-0.3802	-0.1076	-0.0992	-0.0278	-0.0896
3720.0000	-0.1085	-0.0907	0.0938	-0.0163	-0.1053	-0.1008	-0.1104	1.7240	-0.1077	-0.0976	0.0676	-0.3883	-0.1088	-0.1006	-0.0279	-0.0932
3728.0000	-0.1083	-0.0899	0.1173	-0.0089	-0.1062	-0.1003	-0.1130	1.7166	-0.1088	-0.0989	0.0753	-0.3803	-0.1097	-0.1032	-0.0282	-0.0960
3736.0000	-0.1068	-0.0887	0.1392	-0.0070	-0.1051	-0.0995	-0.1148	1.7041	-0.1085	-0.0998	0.0823	-0.3663	-0.1081	-0.1039	-0.0283	-0.0955
3744.0000	-0.1071	-0.0892	0.1601	-0.0088	-0.1053	-0.1019	-0.1180	1.7136	-0.1063	-0.0993	0.0885	-0.3663	-0.1054	-0.1023	-0.0282	-0.0927
3752.0000	-0.1096	-0.0918	0.1800	-0.0069	-0.1075	-0.1045	-0.1217	1.7306	-0.1061	-0.0999	0.0945	-0.3715	-0.1064	-0.1023	-0.0273	-0.0914
3760.0000	-0.1079	-0.0907	0.1988	-0.0046	-0.1060	-0.1028	-0.1219	1.7122	-0.1074	-0.1022	0.1006	-0.3695	-0.1092	-0.1040	-0.0256	-0.0910
3768.0000	-0.0996	-0.0831	0.2170	-0.0077	-0.0986	-0.0978	-0.1167	1.6582	-0.1037	-0.1003	0.1068	-0.3745	-0.1064	-0.1009	-0.0233	-0.0876
3776.0000	-0.0892	-0.0726	0.2361	-0.0107	-0.0901	-0.0912	-0.1093	1.5865	-0.0947	-0.0927	0.1131	-0.3852	-0.0981	-0.0928	-0.0200	-0.0840
3784.0000	-0.0718	-0.0556	0.2569	-0.0108	-0.0752	-0.0762	-0.0985	1.4260	-0.0850	-0.0838	0.1203	-0.3695	-0.0882	-0.0837	-0.0147	-0.0810
3792.0000	-0.0328	-0.0191	0.2791	-0.0219	-0.0387	-0.0414	-0.0737	1.0491	-0.0656	-0.0668	0.1291	-0.3302	-0.0671	-0.0647	-0.0064	-0.0632
3800.0000	0.0218	0.0326	0.3012	-0.0555	0.0144	0.0087	-0.0316	0.4725	-0.0220	-0.0286	0.1393	-0.2966	-0.0222	-0.0228	0.0046	-0.0173
3808.0000	0.0601	0.0697	0.3208	-0.1023	0.0525	0.0484	0.0100	-0.0848	0.0319	0.0211	0.1491	-0.2273	0.0312	0.0285	0.0167	0.0366
3816.0000	0.0647	0.0742	0.3359	-0.1442	0.0580	0.0580	0.0301	-0.4269	0.0620	0.0519	0.1566	-0.0470	0.0597	0.0572	0.0275	0.0628
3824.0000	0.0545	0.0634	0.3460	-0.1725	0.0494	0.0492	0.0309	-0.5666	0.0601	0.0534	0.1614	0.1966	0.0570	0.0557	0.0360	0.0588
3832.0000	0.0507	0.0587	0.3520	-0.1864	0.0474	0.0443	0.0291	-0.6145	0.0510	0.0461	0.1640	0.3549	0.0475	0.0476	0.0425	0.0526
3840.0000	0.0495	0.0574	0.3550	-0.1879	0.0479	0.0445	0.0297	-0.6086	0.0496	0.0456	0.1645	0.3813	0.0461	0.0469	0.0478	0.0554
3848.0000	0.0415	0.0500	0.3568	-0.1826	0.0411	0.0385	0.0267	-0.5393	0.0470	0.0452	0.1634	0.3676	0.0437	0.0447	0.0522	0.0534
3856.0000	0.0316	0.0404	0.3580	-0.1765	0.0317	0.0277	0.0200	-0.4363	0.0371	0.0370	0.1620	0.3763	0.0345	0.0351	0.0561	0.0415
3864.0000	0.0254	0.0341	0.3574	-0.1712	0.0257	0.0210	0.0148	-0.3376	0.0278	0.0261	0.1608	0.3786	0.0255	0.0253	0.0601	0.0304
3872.0000	0.0207	0.0292	0.3543	-0.1664	0.0213	0.0173	0.0105	-0.2398	0.0228	0.0196	0.1589	0.3602	0.0203	0.0193	0.0643	0.0234
3880.0000	0.0161	0.0246	0.3493	-0.1633	0.0174	0.0126	0.0052	-0.1349	0.0184	0.0185	0.1563	0.3511	0.0160	0.0143	0.0684	0.0146
3888.0000	0.0136	0.0227	0.3423	-0.1624	0.0159	0.0092	0.0008	-0.0462	0.0147	0.0198	0.1534	0.3544	0.0126	0.0102	0.0721	0.0052
3896.0000	0.0121	0.0215	0.3330	-0.1646	0.0164	0.0094	-0.0003	-0.0097	0.0131	0.0198	0.1485	0.3474	0.0112	0.0086	0.0740	0.0009
3904.0000	0.0121	0.0214	0.3227	-0.1711	0.0196	0.0121	0.0026	-0.0476	0.0121	0.0176	0.1405	0.3364	0.0107	0.0084	0.0730	0.0027
3912.0000	0.0190	0.0283	0.3149	-0.1785	0.0292	0.0201	0.0113	-0.1486	0.0148	0.0174	0.1321	0.3398	0.0139	0.0131	0.0705	0.0104
3920.0000	0.0316	0.0415	0.3100	-0.1809	0.0429	0.0339	0.0239	-0.2611	0.0256	0.0219	0.1270	0.3495	0.0250	0.0264	0.0693	0.0238
3928.0000	0.0406	0.0508	0.3040	-0.1793	0.0519	0.0448	0.0335	-0.3369	0.0391	0.0299	0.1237	0.3534	0.0390	0.0416	0.0686	0.0348
3936.0000	0.0454	0.0545	0.2945	-0.1792	0.0562	0.0493	0.0375	-0.3804	0.0463	0.0428	0.1178	0.3575	0.0478	0.0493	0.0647	0.0360
3944.0000	0.0561	0.0624	0.2844	-0.1797	0.0651	0.0571	0.0432	-0.4199	0.0516	0.0632	0.1092	0.3656	0.0548	0.0540	0.0581	0.0348
3952.0000	0.0748	0.0771	0.2770	-0.1764	0.0801	0.0729	0.0549	-0.4562	0.0648	0.0852	0.1024	0.3730	0.0685	0.0659	0.0534	0.0438
3960.0000	0.0920	0.0898	0.2705	-0.1716	0.0925	0.0871	0.0683	-0.4807	0.0829	0.0984	0.0989	0.3825	0.0862	0.0823	0.0520	0.0604
3968.0000	0.1019	0.0963	0.2609	-0.1703	0.0985	0.0933	0.0802	-0.5055	0.0958	0.1025	0.0949	0.3956	0.0989	0.0931	0.0489	0.0735
3976.0000	0.1069	0.1004	0.2480	-0.1700	0.1017	0.0967	0.0928	-0.5398	0.1021	0.1057	0.0880	0.4024	0.1054	0.0977	0.0413	0.0815
3984.0000	0.1082	0.1020	0.2342	-0.1664	0.1026	0.0994	0.1034	-0.5717	0.1063	0.1094	0.0798	0.4009	0.1095	0.1011	0.0325	0.0873
3992.0000	0.1022	0.0959	0.2204	-0.1606	0.0967	0.0947	0.1036	-0.5921	0.1064	0.1085	0.0720	0.4000	0.1094	0.1014	0.0246	0.0871
4000.0000	0.0878	0.0812	0.2067	-0.1543	0.0824	0.0805	0.0915	-0.6019	0.0980	0.1002	0.0635	0.3958	0.1006	0.0934	0.0157	0.0767
4008.0000	0.0675	0.0612	0.1936	-0.1448	0.0620	0.0609	0.0739	-0.5979	0.0812	0.0846	0.0541	0.3784	0.0836	0.0770	0.0050	0.0588
4016.0000	0.0443	0.0381	0.1815	-0.1316	0.0383	0.0383	0.0561	-0.5821	0.0591	0.0623	0.0451	0.3533	0.0619	0.0555	-0.0049	0.0371
4024.0000	0.0214	0.0141	0.1695	-0.1184	0.0143	0.0141	0.0378	-0.5681	0.0341	0.0362	0.0367	0.3302	0.0376	0.0317	-0.0132	0.0117
4032.0000	0.0030	-0.0059	0.1564	-0.1061	-0.0051	-0.0064	0.0191	-0.5574	0.0101	0.0111	0.0276	0.3059	0.0134	0.0086	-0.0214	-0.0134
4040.0000	-0.0093	-0.0188	0.1421	-0.0934	-0.0177	-0.0199	0.0017	-0.5361	-0.0085	-0.0104	0.0182	0.2817	-0.0064	-0.0098	-0.0294	-0.0319
4048.0000	-0.0175	-0.0267	0.1270	-0.0815	-0.0255	-0.0286	-0.0117	-0.5015	-0.0205	-0.0259	0.0095	0.2690	-0.0190	-0.0219	-0.0358	-0.0447
4056.0000	-0.0240	-0.0329	0.1128	-0.0706	-0.0318	-0.0355	-0.0185	-0.4602	-0.0282	-0.0330	0.0016	0.2659	-0.0261	-0.0293	-0.0411	-0.0575
4064.0000	-0.0298	-0.0394	0.1017	-0.0572	-0.0377	-0.0413	-0.0189	-0.4116	-0.0337	-0.0349	-0.0053	0.2603	-0.0310	-0.0357	-0.0455	-0.0695
4072.0000	-0.0363	-0.0472	0.0937	-0.0415	-0.0437	-0.0486	-0.0184	-0.3589	-0.0389	-0.0392	-0.0098	0.2531	-0.0361	-0.0443	-0.0475	-0.0758
4080.0000	-0.0440	-0.0559	0.0861	-0.0285	-0.0506	-0.0578	-0.0234	-0.3177	-0.0456	-0.0484	-0.0125	0.2505	-0.0430	-0.0550	-0.0480	-0.0777
4088.0000	-0.0504	-0.0619	0.0780	-0.0200	-0.0567	-0.0651	-0.0339	-0.2957	-0.0535	-0.0585	-0.0163	0.2465	-0.0510	-0.0634	-0.0506	-0.0800
4096.0000	-0.0520	-0.0627	0.0706	-0.0132	-0.0590	-0.0671	-0.0439	-0.2853	-0.0587	-0.0649	-0.0214	0.2386	-0.0558	-0.0655	-0.0552	-0.0818
4104.0000	-0.0505	-0.0609	0.0623	-0.0077	-0.0585	-0.0664	-0.0491	-0.2790	-0.0592	-0.0653	-0.0263	0.2360	-0.0548	-0.0635	-0.0591	-0.0809
4112.0000	-0.0506	-0.0615	0.0507	-0.0048	-0.0593	-0.0656	-0.0505	-0.2698	-0.0580	-0.0606	-0.0321	0.2383	-0.0522	-0.0627	-0.0626	-0.0803
4120.0000	-0.0530	-0.0647	0.0367	-0.0028	-0.0618	-0.0645	-0.0518	-0.2485	-0.0590	-0.0560	-0.0407	0.2355	-0.0532	-0.0645	-0.0674	-0.0813
4128.0000	-0.0552	-0.0680	0.0228	-0.0010	-0.0638	-0.0643	-0.0547	-0.2167	-0.0616	-0.0555	-0.0499	0.2300	-0.0567	-0.0656	-0.0723	-0.0791
4136.0000	-0.0578	-0.0711	0.0082	-0.0019	-0.0655	-0.0669	-0.0582	-0.1861	-0.0635	-0.0576	-0.0575	0.2302	-0.0590	-0.0649	-0.0757	-0.0724
4144.0000	-0.0626	-0.0740	-0.0082	-0.0037	-0.0678	-0.0698	-0.0594	-0.1618	-0.0657	-0.0597	-0.0651	0.2317	-0.0614	-0.0651	-0.0798	-0.0672
4152.0000	-0.0662	-0.0733	-0.0237	-0.0001	-0.0678	-0.0671	-0.0576	-0.1452	-0.0682	-0.0620	-0.0739	0.2307	-0.0647	-0.0658	-0.0851	-0.0660
4160.0000	-0.0650	-0.0683	-0.0374	0.0094	-0.0640	-0.0599	-0.0550	-0.1396	-0.0676	-0.0630	-0.0812	0.2346	-0.0647	-0.0635	-0.0883	-0.0634
4168.0000	-0.0622	-0.0641	-0.0532	0.0192	-0.0604	-0.0551	-0.0544	-0.1338	-0.0637	-0.0589	-0.0869	0.2415	-0.0602	-0.0588	-0.0900	-0.0577
4176.0000	-0.0610	-0.0634	-0.0723	0.0270	-0.0595	-0.0553	-0.0551	-0.1075	-0.0612	-0.0510	-0.0947	0.2404	-0.0565	-0.0563	-0.0946	-0.0535
4184.0000	-0.0599	-0.0630	-0.0905	0.0358	-0.0588	-0.0563	-0.0545	-0.0593	-0.0610	-0.0449	-0.1045	0.2357	-0.0560	-0.0560	-0.1016	-0.0526
4192.0000	-0.0587	-0.0627	-0.1057	0.0458	-0.0583	-0.0567	-0.0539	0.0021	-0.0599	-0.0427	-0.1121	0.2386	-0.0554	-0.0551	-0.1066	-0.0529
4200.0000	-0.0609	-0.0659	-0.1205	0.0558	-0.0614	-0.0592	-0.0562	0.0740	-0.0590	-0.0440	-0.1172	0.2412	-0.0554	-0.0557	-0.1095	-0.0551
4208.0000	-0.0635	-0.0695	-0.1338	0.0669	-0.0650	-0.0626	-0.0596	0.1353	-0.0614	-0.0493	-0.1229	0.2356	-0.0590	-0.0601	-0.1131	-0.0589
4216.0000	-0.0594	-0.0664	-0.1415	0.0797	-0.0623	-0.0611	-0.0586	0.1475	-0.0625	-0.0554	-0.1278	0.2338	-0.0612	-0.0624	-0.1154	-0.0587
4224.0000	-0.0502	-0.0585	-0.1437	0.0918	-0.0551	-0.0546	-0.0530	0.1121	-0.0568	-0.0557	-0.1292	0.2423	-0.0562	-0.0573	-0.1145	-0.0520
4232.0000	-0.0429	-0.0529	-0.1439	0.1018	-0.0498	-0.0484	-0.0477	0.0701	-0.0484	-0.0501	-0.1294	0.2487	-0.0480	-0.0495	-0.1126	-0.0444
4240.0000	-0.0368	-0.0480	-0.1416	0.1116	-0.0449	-0.0442	-0.0438	0.0358	-0.0424	-0.0441	-0.1305	0.2508	-0.0425	-0.0445	-0.1112	-0.0394
4248.0000	-0.0287	-0.0401	-0.1358	0.1224	-0.0375	-0.0397	-0.0394	-0.0053	-0.0361	-0.0379	-0.1297	0.2594	-0.0368	-0.0388	-0.1074	-0.0342
4256.0000	-0.0217	-0.0329	-0.1291	0.1341	-0.0308	-0.0339	-0.0353	-0.0477	-0.0280	-0.0296	-0.1252	0.2715	-0.0287	-0.0308	-0.1008	-0.0291
4264.0000	-0.0174	-0.0288	-0.1238	0.1456	-0.0261	-0.0274	-0.0322	-0.0828	-0.0219	-0.0225	-0.1206	0.2774	-0.0221	-0.0247	-0.0947	-0.0269
4272.0000	-0.0125	-0.0246	-0.1180	0.1554	-0.0203	-0.0211	-0.0269	-0.1167	-0.0178	-0.0186	-0.1174	0.2835	-0.0174	-0.0204	-0.0899	-0.0254
4280.0000	-0.0100	-0.0229	-0.1114	0.1647	-0.0176	-0.0199	-0.0211	-0.1329	-0.0131	-0.0157	-0.1128	0.2941	-0.0129	-0.0154	-0.0850	-0.0235
4288.0000	-0.0150	-0.0280	-0.1063	0.1766	-0.0226	-0.0255	-0.0215	-0.1164	-0.0126	-0.0156	-0.1071	0.2980	-0.0135	-0.0145	-0.0815	-0.0257
4296.0000	-0.0182	-0.0309	-0.1018	0.1898	-0.0256	-0.0276	-0.0234	-0.1249	-0.0177	-0.0210	-0.1027	0.2947	-0.0194	-0.0194	-0.0802	-0.0301
4304.0000	-0.0095	-0.0217	-0.0959	0.1991	-0.0166	-0.0182	-0.0160	-0.2087	-0.0167	-0.0243	-0.0977	0.2990	-0.0179	-0.0181	-0.0792	-0.0259
4312.0000	-0.0016	-0.0128	-0.0916	0.2063	-0.0084	-0.0096	-0.0057	-0.2856	-0.0054	-0.0180	-0.0905	0.3085	-0.0060	-0.0069	-0.0788	-0.0156
4320.0000	-0.0107	-0.0202	-0.0925	0.2200	-0.0166	-0.0169	-0.0101	-0.2462	-0.0008	-0.0116	-0.0845	0.3083	-0.0015	-0.0023	-0.0808	-0.0165
4328.0000	-0.0270	-0.0349	-0.0956	0.2377	-0.0312	-0.0313	-0.0261	-0.1318	-0.0125	-0.0166	-0.0819	0.3028	-0.0132	-0.0134	-0.0829	-0.0312
4336.0000	-0.0327	-0.0401	-0.0968	0.2421	-0.0351	-0.0352	-0.0349	-0.0548	-0.0252	-0.0261	-0.0790	0.3020	-0.0251	-0.0244	-0.0831	-0.0426
4344.0000	-0.0313	-0.0391	-0.0975	0.2222	-0.0322	-0.0309	-0.0361	-0.0270	-0.0267	-0.0287	-0.0740	0.3024	-0.0260	-0.0236	-0.0839	-0.0451
4352.0000	-0.0326	-0.0406	-0.1000	0.1878	-0.0322	-0.0293	-0.0453	-0.0027	-0.0253	-0.0273	-0.0703	0.3053	-0.0250	-0.0210	-0.0841	-0.0493
4360.0000	-0.0327	-0.0402	-0.1024	0.1584	-0.0310	-0.0284	-0.0600	0.0206	-0.0266	-0.0284	-0.0685	0.3163	-0.0269	-0.0234	-0.0766	-0.0560
4368.0000	-0.0306	-0.0370	-0.1037	0.1445	-0.0270	-0.0264	-0.0652	0.0487	-0.0246	-0.0302	-0.0655	0.3203	-0.0246	-0.0238	-0.0622	-0.0555
4376.0000	-0.0365	-0.0416	-0.1062	0.1368	-0.0302	-0.0325	-0.0647	0.1120	-0.0225	-0.0330	-0.0620	0.3133	-0.0221	-0.0232	-0.0544	-0.0523
4384.0000	-0.0475	-0.0523	-0.1102	0.1142	-0.0383	-0.0453	-0.0717	0.1868	-0.0302	-0.0415	-0.0620	0.3354	-0.0292	-0.0301	-0.0586	-0.0591
4392.0000	-0.0449	-0.0511	-0.1128	0.0673	-0.0339	-0.0444	-0.0807	0.2197	-0.0393	-0.0497	-0.0640	0.3908	-0.0376	-0.0373	-0.0644	-0.0695
4400.0000	-0.0235	-0.0322	-0.1130	0.0141	-0.0118	-0.0210	-0.0762	0.2257	-0.0321	-0.0437	-0.0635	0.3872	-0.0301	-0.0286	-0.0645	-0.0654
4408.0000	0.0006	-0.0091	-0.1124	-0.0195	0.0126	0.0071	-0.0606	0.2454	-0.0103	-0.0222	-0.0605	0.2575	-0.0087	-0.0056	-0.0641	-0.0456
4416.0000	0.0165	0.0079	-0.1125	-0.0296	0.0274	0.0229	-0.0482	0.2639	0.0098	0.0016	-0.0580	0.0810	0.0113	0.0162	-0.0669	-0.0251
4424.0000	0.0265	0.0196	-0.1137	-0.0313	0.0347	0.0296	-0.0421	0.2649	0.0214	0.0177	-0.0562	-0.0231	0.0234	0.0302	-0.0697	-0.0135
4432.0000	0.0339	0.0281	-0.1166	-0.0351	0.0393	0.0356	-0.0366	0.2729	0.0286	0.0254	-0.0548	-0.0523	0.0299	0.0391	-0.0722	-0.0076
4440.0000	0.0384	0.0338	-0.1212	-0.0418	0.0427	0.0409	-0.0317	0.2902	0.0339	0.0289	-0.0552	-0.0725	0.0334	0.0447	-0.0781	-0.0023
4448.0000	0.0397	0.0365	-0.1260	-0.0508	0.0442	0.0422	-0.0304	0.2960	0.0371	0.0320	-0.0576	-0.0957	0.0359	0.0469	-0.0864	0.0030
4456.0000	0.0370	0.0345	-0.1292	-0.0603	0.0418	0.0390	-0.0288	0.3071	0.0373	0.0350	-0.0594	-0.1003	0.0374	0.0463	-0.0910	0.0054
4464.0000	0.0318	0.0285	-0.1293	-0.0665	0.0371	0.0333	-0.0170	0.3299	0.0334	0.0359	-0.0587	-0.0974	0.0354	0.0424	-0.0895	0.0026
4472.0000	0.0297	0.0248	-0.1266	-0.0706	0.0355	0.0293	0.0082	0.3158	0.0288	0.0351	-0.0561	-0.1042	0.0319	0.0377	-0.0836	-0.0036
4480.0000	0.0328	0.0263	-0.1236	-0.0777	0.0387	0.0298	0.0359	0.2509	0.0290	0.0349	-0.0528	-0.1106	0.0321	0.0366	-0.0764	-0.0092
4488.0000	0.0378	0.0300	-0.1219	-0.0877	0.0434	0.0339	0.0533	0.1854	0.0332	0.0348	-0.0498	-0.1105	0.0357	0.0392	-0.0706	-0.0117
4496.0000	0.0449	0.0364	-0.1207	-0.0979	0.0504	0.0407	0.0649	0.1241	0.0380	0.0355	-0.0474	-0.1124	0.0401	0.0435	-0.0667	-0.0097
4504.0000	0.0564	0.0480	-0.1191	-0.1084	0.0615	0.0506	0.0855	0.0282	0.0461	0.0414	-0.0452	-0.1129	0.0487	0.0517	-0.0627	-0.0018
4512.0000	0.0685	0.0604	-0.1182	-0.1172	0.0727	0.0618	0.1127	-0.0741	0.0586	0.0514	-0.0434	-0.1046	0.0625	0.0640	-0.0586	0.0103
4520.0000	0.0777	0.0697	-0.1175	-0.1204	0.0816	0.0730	0.1290	-0.1326	0.0699	0.0601	-0.0425	-0.0968	0.0745	0.0753	-0.0559	0.0226
4528.0000	0.0889	0.0805	-0.1152	-0.1235	0.0939	0.0863	0.1326	-0.1822	0.0790	0.0699	-0.0410	-0.0940	0.0836	0.0853	-0.0535	0.0344
4536.0000	0.1024	0.0937	-0.1129	-0.1376	0.1089	0.1001	0.1398	-0.2670	0.0918	0.0864	-0.0379	-0.0855	0.0963	0.0987	-0.0490	0.0484
4544.0000	0.1099	0.1018	-0.1142	-0.1617	0.1170	0.1084	0.1556	-0.3481	0.1054	0.1033	-0.0363	-0.0739	0.1098	0.1119	-0.0453	0.0679
4552.0000	0.1106	0.1035	-0.1172	-0.1827	0.1174	0.1119	0.1682	-0.3862	0.1109	0.1125	-0.0385	-0.0728	0.1149	0.1167	-0.0456	0.0940
4560.0000	0.1131	0.1061	-0.1176	-0.1929	0.1192	0.1161	0.1722	-0.3970	0.1113	0.1199	-0.0411	-0.0759	0.1151	0.1166	-0.0460	0.1209
4568.0000	0.1174	0.1092	-0.1163	-0.1956	0.1228	0.1183	0.1734	-0.3853	0.1148	0.1303	-0.0401	-0.0696	0.1184	0.1190	-0.0419	0.1358
4576.0000	0.1175	0.1084	-0.1164	-0.1966	0.1225	0.1143	0.1742	-0.3551	0.1181	0.1344	-0.0378	-0.0617	0.1212	0.1210	-0.0363	0.1357
4584.0000	0.1172	0.1087	-0.1165	-0.1991	0.1222	0.1118	0.1723	-0.3546	0.1175	0.1307	-0.0373	-0.0618	0.1201	0.1197	-0.0327	0.1342
4592.0000	0.1211	0.1135	-0.1130	-0.2021	0.1259	0.1167	0.1687	-0.3898	0.1193	0.1335	-0.0364	-0.0602	0.1219	0.1210	-0.0282	0.1401
4600.0000	0.1218	0.1144	-0.1073	-0.2025	0.1264	0.1194	0.1655	-0.3946	0.1241	0.1433	-0.0333	-0.0531	0.1267	0.1247	-0.0213	0.1427
4608.0000	0.1163	0.1094	-0.1019	-0.2040	0.1211	0.1148	0.1617	-0.3713	0.1230	0.1426	-0.0305	-0.0519	0.1249	0.1227	-0.0150	0.1352
4616.0000	0.1144	0.1081	-0.0950	-0.2115	0.1189	0.1140	0.1570	-0.3901	0.1176	0.1309	-0.0289	-0.0543	0.1189	0.1179	-0.0095	0.1299
4624.0000	0.1154	0.1089	-0.0851	-0.2149	0.1187	0.1188	0.1529	-0.4162	0.1168	0.1251	-0.0253	-0.0495	0.1184	0.1182	-0.0010	0.1318
4632.0000	0.1077	0.0997	-0.0753	-0.1969	0.1089	0.1138	0.1525	-0.3622	0.1147	0.1235	-0.0200	-0.0484	0.1164	0.1161	0.0103	0.1268
4640.0000	0.0972	0.0878	-0.0688	-0.1673	0.0969	0.1006	0.1600	-0.3054	0.1021	0.1114	-0.0171	-0.0639	0.1032	0.1031	0.0195	0.1143
4648.0000	0.1055	0.0954	-0.0649	-0.1568	0.1048	0.1031	0.1768	-0.4076	0.0934	0.0984	-0.0177	-0.0766	0.0943	0.0943	0.0252	0.1171
4656.0000	0.1328	0.1227	-0.0616	-0.1700	0.1323	0.1281	0.1991	-0.6558	0.1081	0.1081	-0.0186	-0.0627	0.1094	0.1089	0.0305	0.1437
4664.0000	0.1552	0.1452	-0.0576	-0.1792	0.1547	0.1516	0.2227	-0.8859	0.1363	0.1361	-0.0184	-0.0333	0.1380	0.1375	0.0373	0.1702
4672.0000	0.1592	0.1499	-0.0520	-0.1712	0.1585	0.1565	0.2417	-1.0003	0.1524	0.1556	-0.0173	-0.0136	0.1544	0.1554	0.0461	0.1757
4680.0000	0.1556	0.1467	-0.0446	-0.1619	0.1547	0.1526	0.2423	-1.0360	0.1514	0.1564	-0.0150	-0.0073	0.1537	0.1567	0.0572	0.1673
4688.0000	0.1590	0.1499	-0.0361	-0.1614	0.1579	0.1564	0.2205	-1.0961	0.1487	0.1526	-0.0111	-0.0031	0.1513	0.1546	0.0697	0.1638
4696.0000	0.1701	0.1605	-0.0269	-0.1600	0.1689	0.1674	0.1970	-1.2318	0.1556	0.1580	-0.0066	0.0064	0.1582	0.1607	0.0821	0.1722
4704.0000	0.1748	0.1645	-0.0174	-0.1540	0.1731	0.1710	0.1888	-1.3288	0.1664	0.1693	-0.0021	0.0195	0.1688	0.1707	0.0938	0.1825
4712.0000	0.1617	0.1507	-0.0093	-0.1515	0.1593	0.1569	0.1822	-1.2352	0.1656	0.1703	0.0021	0.0244	0.1676	0.1692	0.1045	0.1784
4720.0000	0.1416	0.1304	-0.0028	-0.1533	0.1383	0.1358	0.1634	-1.0438	0.1484	0.1541	0.0052	0.0130	0.1497	0.1509	0.1127	0.1590
4728.0000	0.1334	0.1229	0.0045	-0.1520	0.1302	0.1269	0.1481	-0.9800	0.1311	0.1356	0.0073	-0.0016	0.1322	0.1329	0.1191	0.1441
4736.0000	0.1340	0.1247	0.0147	-0.1474	0.1327	0.1289	0.1460	-1.0177	0.1279	0.1304	0.0112	-0.0026	0.1290	0.1295	0.1263	0.1440
4744.0000	0.1290	0.1207	0.0256	-0.1447	0.1298	0.1263	0.1403	-0.9913	0.1291	0.1308	0.0179	0.0020	0.1293	0.1303	0.1351	0.1453
4752.0000	0.1253	0.1177	0.0343	-0.1451	0.1265	0.1224	0.1298	-0.9854	0.1248	0.1267	0.0249	0.0003	0.1240	0.1254	0.1430	0.1413
4760.0000	0.1309	0.1237	0.0399	-0.1476	0.1317	0.1268	0.1314	-1.0929	0.1259	0.1276	0.0298	0.0032	0.1252	0.1267	0.1487	0.1442
4768.0000	0.1180	0.1106	0.0418	-0.1543	0.1198	0.1158	0.1265	-0.9900	0.1297	0.1322	0.0325	0.0109	0.1297	0.1316	0.1523	0.1462
4776.0000	0.0605	0.0532	0.0409	-0.1649	0.0644	0.0619	0.0791	-0.3910	0.1023	0.1082	0.0327	-0.0094	0.1020	0.1057	0.1537	0.1150
4784.0000	-0.0100	-0.0159	0.0408	-0.1739	-0.0048	-0.0069	0.0152	0.3175	0.0348	0.0443	0.0316	-0.0702	0.0336	0.0398	0.1520	0.0510
4792.0000	-0.0435	-0.0469	0.0447	-0.1752	-0.0382	-0.0379	-0.0085	0.5665	-0.0270	-0.0175	0.0322	-0.1290	-0.0280	-0.0204	0.1469	-0.0000
4800.0000	-0.0431	-0.0449	0.0512	-0.1679	-0.0377	-0.0320	-0.0058	0.4395	-0.0463	-0.0391	0.0354	-0.1485	-0.0467	-0.0392	0.1380	-0.0121
4808.0000	-0.0450	-0.0469	0.0576	-0.1566	-0.0398	-0.0303	-0.0335	0.3894	-0.0441	-0.0373	0.0388	-0.1466	-0.0445	-0.0379	0.1264	-0.0077
4816.0000	-0.0563	-0.0583	0.0640	-0.1461	-0.0526	-0.0425	-0.0829	0.4838	-0.0509	-0.0423	0.0410	-0.1537	-0.0515	-0.0458	0.1152	-0.0102
4824.0000	-0.0621	-0.0624	0.0712	-0.1372	-0.0600	-0.0471	-0.1024	0.5136	-0.0614	-0.0516	0.0433	-0.1664	-0.0620	-0.0571	0.1068	-0.0162
4832.0000	-0.0626	-0.0597	0.0781	-0.1293	-0.0605	-0.0420	-0.0955	0.4808	-0.0634	-0.0537	0.0454	-0.1702	-0.0647	-0.0603	0.1000	-0.0206
4840.0000	-0.0636	-0.0575	0.0848	-0.1234	-0.0600	-0.0396	-0.0967	0.4884	-0.0630	-0.0534	0.0459	-0.1679	-0.0651	-0.0613	0.0942	-0.0274
4848.0000	-0.0591	-0.0515	0.0932	-0.1190	-0.0543	-0.0374	-0.0944	0.4776	-0.0623	-0.0531	0.0466	-0.1636	-0.0642	-0.0613	0.0920	-0.0336
4856.0000	-0.0496	-0.0422	0.1028	-0.1135	-0.0443	-0.0321	-0.0661	0.3971	-0.0549	-0.0469	0.0496	-0.1524	-0.0560	-0.0532	0.0956	-0.0352
4864.0000	-0.0469	-0.0403	0.1103	-0.1088	-0.0418	-0.0334	-0.0392	0.3286	-0.0463	-0.0398	0.0526	-0.1328	-0.0477	-0.0436	0.1027	-0.0386
4872.0000	-0.0518	-0.0453	0.1151	-0.1073	-0.0477	-0.0423	-0.0441	0.2992	-0.0471	-0.0416	0.0529	-0.1102	-0.0491	-0.0438	0.1104	-0.0459
4880.0000	-0.0549	-0.0483	0.1199	-0.1032	-0.0519	-0.0472	-0.0607	0.2541	-0.0524	-0.0473	0.0531	-0.0917	-0.0542	-0.0493	0.1177	-0.0470
4888.0000	-0.0564	-0.0501	0.1252	-0.0921	-0.0533	-0.0487	-0.0635	0.2164	-0.0542	-0.0489	0.0560	-0.0857	-0.0561	-0.0514	0.1247	-0.0398
4896.0000	-0.0608	-0.0551	0.1286	-0.0838	-0.0577	-0.0553	-0.0630	0.2253	-0.0566	-0.0509	0.0602	-0.0946	-0.0600	-0.0541	0.1291	-0.0344
4904.0000	-0.0635	-0.0577	0.1286	-0.0836	-0.0623	-0.0599	-0.0696	0.2169	-0.0620	-0.0563	0.0624	-0.1073	-0.0666	-0.0605	0.1289	-0.0331
4912.0000	-0.0616	-0.0545	0.1266	-0.0715	-0.0634	-0.0542	-0.0733	0.1578	-0.0638	-0.0582	0.0628	-0.1144	-0.0676	-0.0641	0.1251	-0.0306
4920.0000	-0.0609	-0.0520	0.1243	-0.0289	-0.0648	-0.0506	-0.0722	0.1271	-0.0619	-0.0553	0.0621	-0.1216	-0.0643	-0.0624	0.1209	-0.0291
4928.0000	-0.0613	-0.0516	0.1223	0.0258	-0.0664	-0.0598	-0.0747	0.1486	-0.0622	-0.0552	0.0604	-0.1331	-0.0640	-0.0602	0.1184	-0.0316
4936.0000	-0.0563	-0.0474	0.1197	0.0584	-0.0628	-0.0678	-0.0772	0.1429	-0.0614	-0.0575	0.0583	-0.1375	-0.0630	-0.0565	0.1171	-0.0305
4944.0000	-0.0471	-0.0402	0.1157	0.0630	-0.0544	-0.0594	-0.0738	0.0894	-0.0537	-0.0544	0.0565	-0.1276	-0.0552	-0.0485	0.1153	-0.0210
4952.0000	-0.0399	-0.0347	0.1105	0.0576	-0.0465	-0.0423	-0.0728	0.0442	-0.0440	-0.0455	0.0543	-0.1137	-0.0457	-0.0398	0.1131	-0.0105
4960.0000	-0.0340	-0.0300	0.1057	0.0517	-0.0396	-0.0311	-0.0780	0.0169	-0.0375	-0.0364	0.0517	-0.1047	-0.0395	-0.0342	0.1119	-0.0043
4968.0000	-0.0294	-0.0264	0.1022	0.0459	-0.0356	-0.0287	-0.0804	-0.0086	-0.0321	-0.0291	0.0504	-0.0985	-0.0347	-0.0302	0.1121	0.0010
4976.0000	-0.0325	-0.0299	0.0993	0.0445	-0.0396	-0.0328	-0.0803	-0.0101	-0.0294	-0.0257	0.0512	-0.0950	-0.0329	-0.0298	0.1131	0.0046
4984.0000	-0.0433	-0.0401	0.0968	0.0504	-0.0498	-0.0414	-0.0872	0.0105	-0.0354	-0.0298	0.0523	-0.0992	-0.0397	-0.0365	0.1151	0.0011
4992.0000	-0.0535	-0.0492	0.0960	0.0592	-0.0577	-0.0503	-0.0994	0.0085	-0.0465	-0.0388	0.0532	-0.1084	-0.0510	-0.0462	0.1189	-0.0080
5000.0000	-0.0613	-0.0561	0.0980	0.0693	-0.0628	-0.0575	-0.1099	-0.0137	-0.0551	-0.0467	0.0557	-0.1167	-0.0593	-0.0535	0.1255	-0.0169
5008.0000	-0.0701	-0.0644	0.1019	0.0824	-0.0693	-0.0647	-0.1207	-0.0198	-0.0624	-0.0536	0.0595	-0.1243	-0.0665	-0.0606	0.1355	-0.0256
5016.0000	-0.0765	-0.0705	0.1059	0.0939	-0.0738	-0.0709	-0.1311	-0.0240	-0.0708	-0.0610	0.0632	-0.1317	-0.0746	-0.0685	0.1477	-0.0346
5024.0000	-0.0766	-0.0708	0.1086	0.0966	-0.0727	-0.0733	-0.1324	-0.0494	-0.0747	-0.0661	0.0662	-0.1344	-0.0784	-0.0718	0.1589	-0.0410
5032.0000	-0.0752	-0.0703	0.1092	0.0916	-0.0715	-0.0734	-0.1263	-0.0642	-0.0730	-0.0673	0.0683	-0.1313	-0.0768	-0.0707	0.1665	-0.0444
5040.0000	-0.0757	-0.0714	0.1080	0.0846	-0.0729	-0.0734	-0.1253	-0.0527	-0.0726	-0.0684	0.0683	-0.1276	-0.0763	-0.0717	0.1706	-0.0474
5048.0000	-0.0725	-0.0685	0.1063	0.0770	-0.0712	-0.0708	-0.1291	-0.0537	-0.0737	-0.0694	0.0667	-0.1243	-0.0765	-0.0735	0.1723	-0.0479
5056.0000	-0.0655	-0.0619	0.1039	0.0686	-0.0659	-0.0657	-0.1275	-0.0747	-0.0701	-0.0662	0.0653	-0.1189	-0.0715	-0.0703	0.1725	-0.0442
5064.0000	-0.0617	-0.0588	0.0998	0.0619	-0.0637	-0.0630	-0.1202	-0.0820	-0.0640	-0.0613	0.0638	-0.1146	-0.0648	-0.0653	0.1722	-0.0428
5072.0000	-0.0593	-0.0569	0.0954	0.0577	-0.0621	-0.0611	-0.1125	-0.0891	-0.0620	-0.0594	0.0613	-0.1142	-0.0623	-0.0641	0.1722	-0.0464
5080.0000	-0.0487	-0.0467	0.0932	0.0538	-0.0520	-0.0533	-0.1024	-0.1418	-0.0585	-0.0563	0.0599	-0.1120	-0.0581	-0.0610	0.1731	-0.0456
5088.0000	-0.0325	-0.0315	0.0912	0.0482	-0.0366	-0.0413	-0.0897	-0.2264	-0.0459	-0.0452	0.0616	-0.1018	-0.0456	-0.0490	0.1758	-0.0345
5096.0000	-0.0236	-0.0232	0.0850	0.0413	-0.0286	-0.0333	-0.0828	-0.2898	-0.0310	-0.0313	0.0629	-0.0889	-0.0320	-0.0347	0.1789	-0.0230
5104.0000	-0.0252	-0.0237	0.0750	0.0354	-0.0293	-0.0308	-0.0832	-0.3138	-0.0252	-0.0250	0.0597	-0.0819	-0.0273	-0.0289	0.1787	-0.0211
5112.0000	-0.0294	-0.0254	0.0668	0.0345	-0.0306	-0.0294	-0.0817	-0.3093	-0.0266	-0.0269	0.0545	-0.0809	-0.0290	-0.0304	0.1751	-0.0240
5120.0000	-0.0320	-0.0258	0.0625	0.0402	-0.0299	-0.0289	-0.0759	-0.2856	-0.0274	-0.0295	0.0521	-0.0811	-0.0300	-0.0315	0.1730	-0.0223
5128.0000	-0.0354	-0.0276	0.0586	0.0475	-0.0310	-0.0302	-0.0730	-0.2542	-0.0276	-0.0302	0.0514	-0.0817	-0.0302	-0.0307	0.1740	-0.0179
5136.0000	-0.0409	-0.0315	0.0523	0.0509	-0.0349	-0.0323	-0.0757	-0.2162	-0.0306	-0.0328	0.0484	-0.0847	-0.0326	-0.0322	0.1721	-0.0184
5144.0000	-0.0470	-0.0370	0.0458	0.0498	-0.0397	-0.0376	-0.0800	-0.1537	-0.0360	-0.0385	0.0428	-0.0909	-0.0376	-0.0379	0.1650	-0.0245
5152.0000	-0.0511	-0.0437	0.0412	0.0486	-0.0431	-0.0475	-0.0826	-0.0724	-0.0413	-0.0436	0.0371	-0.0991	-0.0434	-0.0449	0.1582	-0.0297
5160.0000	-0.0514	-0.0485	0.0374	0.0534	-0.0424	-0.0539	-0.0822	-0.0129	-0.0445	-0.0452	0.0328	-0.1060	-0.0470	-0.0480	0.1524	-0.0290
5168.0000	-0.0503	-0.0493	0.0328	0.0683	-0.0391	-0.0492	-0.0781	0.0067	-0.0438	-0.0455	0.0294	-0.1081	-0.0457	-0.0458	0.1407	-0.0238
5176.0000	-0.0529	-0.0496	0.0281	0.0893	-0.0393	-0.0409	-0.0742	0.0092	-0.0412	-0.0482	0.0266	-0.1058	-0.0423	-0.0436	0.1251	-0.0208
5184.0000	-0.0590	-0.0529	0.0259	0.1047	-0.0455	-0.0407	-0.0746	0.0129	-0.0422	-0.0528	0.0238	-0.1043	-0.0426	-0.0464	0.1217	-0.0251
5192.0000	-0.0619	-0.0559	0.0274	0.1074	-0.0514	-0.0457	-0.0775	0.0211	-0.0474	-0.0556	0.0212	-0.1064	-0.0464	-0.0519	0.1375	-0.0342
5200.0000	-0.0582	-0.0544	0.0321	0.1010	-0.0515	-0.0461	-0.0779	0.0405	-0.0508	-0.0553	0.0203	-0.1097	-0.0480	-0.0543	0.1587	-0.0411
5208.0000	-0.0519	-0.0502	0.0380	0.0904	-0.0479	-0.0417	-0.0718	0.0654	-0.0487	-0.0537	0.0217	-0.1117	-0.0456	-0.0519	0.1706	-0.0424
5216.0000	-0.0474	-0.0467	0.0440	0.0773	-0.0436	-0.0382	-0.0575	0.0731	-0.0443	-0.0516	0.0237	-0.1133	-0.0419	-0.0475	0.1754	-0.0403
5224.0000	-0.0440	-0.0441	0.0499	0.0639	-0.0388	-0.0363	-0.0395	0.0602	-0.0406	-0.0482	0.0247	-0.1159	-0.0389	-0.0428	0.1807	-0.0381
5232.0000	-0.0416	-0.0421	0.0554	0.0530	-0.0348	-0.0345	-0.0293	0.0447	-0.0376	-0.0444	0.0251	-0.1183	-0.0362	-0.0388	0.1858	-0.0367
5240.0000	-0.0413	-0.0421	0.0602	0.0428	-0.0344	-0.0345	-0.0306	0.0298	-0.0356	-0.0430	0.0246	-0.1183	-0.0344	-0.0369	0.1866	-0.0367
5248.0000	-0.0425	-0.0435	0.0657	0.0311	-0.0363	-0.0362	-0.0324	0.0086	-0.0357	-0.0444	0.0229	-0.1156	-0.0346	-0.0377	0.1841	-0.0389
5256.0000	-0.0422	-0.0431	0.0731	0.0196	-0.0365	-0.0366	-0.0266	-0.0117	-0.0367	-0.0448	0.0218	-0.1107	-0.0351	-0.0391	0.1822	-0.0418
5264.0000	-0.0392	-0.0399	0.0813	0.0099	-0.0339	-0.0348	-0.0191	-0.0289	-0.0359	-0.0415	0.0234	-0.1048	-0.0337	-0.0388	0.1818	-0.0426
5272.0000	-0.0345	-0.0353	0.0890	0.0012	-0.0300	-0.0321	-0.0138	-0.0562	-0.0325	-0.0359	0.0271	-0.0998	-0.0306	-0.0365	0.1824	-0.0411
5280.0000	-0.0288	-0.0304	0.0971	-0.0059	-0.0249	-0.0281	-0.0046	-0.0921	-0.0278	-0.0311	0.0308	-0.0970	-0.0271	-0.0328	0.1842	-0.0395
5288.0000	-0.0234	-0.0256	0.1054	-0.0114	-0.0190	-0.0232	0.0093	-0.1205	-0.0224	-0.0275	0.0350	-0.0965	-0.0231	-0.0281	0.1864	-0.0383
5296.0000	-0.0203	-0.0218	0.1113	-0.0188	-0.0148	-0.0199	0.0189	-0.1452	-0.0171	-0.0239	0.0391	-0.0972	-0.0186	-0.0236	0.1874	-0.0361
5304.0000	-0.0192	-0.0192	0.1145	-0.0278	-0.0128	-0.0181	0.0223	-0.1774	-0.0136	-0.0214	0.0408	-0.0986	-0.0155	-0.0204	0.1857	-0.0317
5312.0000	-0.0169	-0.0157	0.1185	-0.0326	-0.0100	-0.0140	0.0278	-0.2061	-0.0115	-0.0207	0.0403	-0.1004	-0.0140	-0.0178	0.1819	-0.0247
5320.0000	-0.0121	-0.0103	0.1244	-0.0328	-0.0051	-0.0072	0.0367	-0.2219	-0.0082	-0.0192	0.0415	-0.1012	-0.0111	-0.0136	0.1781	-0.0145
5328.0000	-0.0073	-0.0052	0.1286	-0.0351	-0.0005	-0.0018	0.0412	-0.2374	-0.0030	-0.0147	0.0449	-0.1005	-0.0053	-0.0076	0.1751	-0.0038
5336.0000	-0.0038	-0.0007	0.1299	-0.0411	0.0032	0.0017	0.0402	-0.2591	0.0018	-0.0091	0.0467	-0.0999	0.0002	-0.0021	0.1715	0.0029
5344.0000	0.0017	0.0061	0.1311	-0.0468	0.0088	0.0069	0.0415	-0.2802	0.0053	-0.0045	0.0457	-0.1007	0.0039	0.0026	0.1673	0.0051
5352.0000	0.0119	0.0171	0.1329	-0.0543	0.0179	0.0154	0.0492	-0.3105	0.0109	0.0019	0.0451	-0.1001	0.0094	0.0099	0.1651	0.0070
5360.0000	0.0246	0.0294	0.1334	-0.0672	0.0286	0.0250	0.0598	-0.3624	0.0207	0.0125	0.0464	-0.0920	0.0193	0.0211	0.1665	0.0105
5368.0000	0.0352	0.0388	0.1330	-0.0792	0.0389	0.0340	0.0688	-0.4159	0.0313	0.0241	0.0476	-0.0742	0.0300	0.0326	0.1690	0.0147
5376.0000	0.0424	0.0447	0.1338	-0.0822	0.0473	0.0415	0.0749	-0.4440	0.0389	0.0323	0.0477	-0.0526	0.0373	0.0408	0.1696	0.0208
5384.0000	0.0471	0.0483	0.1346	-0.0789	0.0526	0.0468	0.0791	-0.4543	0.0437	0.0379	0.0474	-0.0369	0.0421	0.0459	0.1672	0.0303
5392.0000	0.0496	0.0504	0.1329	-0.0759	0.0550	0.0499	0.0824	-0.4654	0.0473	0.0430	0.0469	-0.0313	0.0464	0.0495	0.1626	0.0400
5400.0000	0.0496	0.0507	0.1296	-0.0734	0.0561	0.0518	0.0831	-0.4753	0.0494	0.0466	0.0454	-0.0328	0.0491	0.0514	0.1572	0.0463
5408.0000	0.0482	0.0497	0.1268	-0.0699	0.0566	0.0524	0.0803	-0.4786	0.0497	0.0478	0.0430	-0.0367	0.0492	0.0514	0.1519	0.0500
5416.0000	0.0478	0.0491	0.1245	-0.0662	0.0567	0.0521	0.0801	-0.4778	0.0495	0.0483	0.0406	-0.0412	0.0490	0.0513	0.1466	0.0535
5424.0000	0.0500	0.0509	0.1226	-0.0616	0.0578	0.0538	0.0889	-0.4691	0.0504	0.0509	0.0394	-0.0457	0.0504	0.0523	0.1417	0.0567
5432.0000	0.0536	0.0546	0.1201	-0.0560	0.0604	0.0576	0.1006	-0.4493	0.0525	0.0564	0.0394	-0.0498	0.0529	0.0547	0.1377	0.0593
5440.0000	0.0549	0.0564	0.1144	-0.0543	0.0612	0.0593	0.1044	-0.4280	0.0545	0.0632	0.0377	-0.0544	0.0549	0.0568	0.1322	0.0615
5448.0000	0.0531	0.0551	0.1062	-0.0575	0.0588	0.0577	0.1013	-0.4080	0.0545	0.0680	0.0319	-0.0604	0.0553	0.0567	0.1222	0.0624
5456.0000	0.0526	0.0552	0.1009	-0.0580	0.0576	0.0584	0.1017	-0.3764	0.0529	0.0699	0.0250	-0.0653	0.0548	0.0556	0.1113	0.0629
5464.0000	0.0553	0.0587	0.1001	-0.0531	0.0603	0.0643	0.1065	-0.3334	0.0533	0.0722	0.0222	-0.0656	0.0562	0.0569	0.1056	0.0656
5472.0000	0.0567	0.0605	0.0983	-0.0501	0.0619	0.0699	0.1083	-0.2960	0.0559	0.0754	0.0220	-0.0636	0.0588	0.0607	0.1032	0.0688
5480.0000	0.0536	0.0569	0.0933	-0.0517	0.0587	0.0700	0.1056	-0.2646	0.0569	0.0746	0.0189	-0.0654	0.0584	0.0620	0.0969	0.0673
5488.0000	0.0490	0.0519	0.0900	-0.0511	0.0543	0.0664	0.1025	-0.2238	0.0538	0.0679	0.0134	-0.0715	0.0535	0.0591	0.0885	0.0614
5496.0000	0.0454	0.0479	0.0898	-0.0459	0.0506	0.0613	0.0985	-0.1711	0.0492	0.0607	0.0107	-0.0762	0.0484	0.0553	0.0845	0.0563
5504.0000	0.0389	0.0411	0.0877	-0.0407	0.0433	0.0532	0.0922	-0.1132	0.0438	0.0565	0.0108	-0.0781	0.0444	0.0511	0.0829	0.0515
5512.0000	0.0282	0.0301	0.0825	-0.0365	0.0317	0.0428	0.0866	-0.0467	0.0351	0.0507	0.0098	-0.0819	0.0369	0.0432	0.0779	0.0422
5520.0000	0.0185	0.0208	0.0791	-0.0301	0.0217	0.0343	0.0830	0.0283	0.0238	0.0398	0.0079	-0.0893	0.0252	0.0323	0.0712	0.0298
5528.0000	0.0133	0.0166	0.0774	-0.0235	0.0161	0.0284	0.0777	0.0961	0.0149	0.0280	0.0075	-0.0963	0.0158	0.0241	0.0630	0.0202
5536.0000	0.0099	0.0141	0.0721	-0.0212	0.0122	0.0228	0.0721	0.1461	0.0099	0.0202	0.0072	-0.1008	0.0113	0.0196	0.0431	0.0132
5544.0000	0.0073	0.0119	0.0630	-0.0210	0.0096	0.0178	0.0727	0.1834	0.0059	0.0179	0.0045	-0.1043	0.0078	0.0158	0.0081	0.0065
5552.0000	0.0082	0.0128	0.0546	-0.0185	0.0105	0.0156	0.0762	0.2107	0.0029	0.0200	0.0019	-0.1043	0.0043	0.0134	-0.0269	0.0031
5560.0000	0.0115	0.0162	0.0465	-0.0158	0.0130	0.0150	0.0709	0.2231	0.0031	0.0230	0.0014	-0.0962	0.0041	0.0143	-0.0494	0.0044
5568.0000	0.0127	0.0177	0.0354	-0.0158	0.0133	0.0139	0.0560	0.2253	0.0048	0.0220	-0.0003	-0.0833	0.0062	0.0159	-0.0657	0.0047
5576.0000	0.0111	0.0171	0.0229	-0.0157	0.0122	0.0132	0.0435	0.2325	0.0048	0.0176	-0.0052	-0.0721	0.0066	0.0154	-0.0840	0.0002
5584.0000	0.0097	0.0172	0.0128	-0.0121	0.0116	0.0136	0.0397	0.2526	0.0034	0.0155	-0.0098	-0.0596	0.0050	0.0143	-0.0996	-0.0054
5592.0000	0.0091	0.0175	0.0041	-0.0080	0.0100	0.0128	0.0385	0.2767	0.0025	0.0158	-0.0114	-0.0390	0.0040	0.0143	-0.1095	-0.0089
5600.0000	0.0085	0.0164	-0.0056	-0.0081	0.0076	0.0109	0.0355	0.2897	0.0015	0.0122	-0.0128	-0.0126	0.0034	0.0136	-0.1201	-0.0118
5608.0000	0.0088	0.0153	-0.0144	-0.0109	0.0076	0.0110	0.0336	0.2878	0.0002	0.0057	-0.0156	0.0114	0.0023	0.0125	-0.1337	-0.0138
5616.0000	0.0097	0.0151	-0.0205	-0.0107	0.0092	0.0119	0.0331	0.2828	-0.0001	0.0030	-0.0168	0.0310	0.0017	0.0133	-0.1444	-0.0133
5624.0000	0.0095	0.0139	-0.0267	-0.0073	0.0081	0.0092	0.0295	0.2823	-0.0002	0.0039	-0.0156	0.0471	0.0014	0.0142	-0.1527	-0.0125
5632.0000	0.0078	0.0110	-0.0346	-0.0044	0.0038	0.0031	0.0218	0.2811	-0.0027	0.0013	-0.0156	0.0555	-0.0007	0.0116	-0.1650	-0.0143
5640.0000	0.0056	0.0078	-0.0406	-0.0018	-0.0001	-0.0017	0.0145	0.2817	-0.0070	-0.0042	-0.0175	0.0558	-0.0041	0.0065	-0.1791	-0.0152
5648.0000	0.0023	0.0037	-0.0424	0.0047	-0.0033	-0.0046	0.0094	0.3015	-0.0104	-0.0067	-0.0174	0.0563	-0.0067	0.0030	-0.1884	-0.0116
5656.0000	-0.0035	-0.0028	-0.0443	0.0128	-0.0084	-0.0097	0.0044	0.3405	-0.0137	-0.0075	-0.0147	0.0607	-0.0098	-0.0005	-0.1957	-0.0079
5664.0000	-0.0095	-0.0093	-0.0501	0.0166	-0.0145	-0.0169	-0.0009	0.3687	-0.0194	-0.0138	-0.0148	0.0600	-0.0155	-0.0072	-0.2097	-0.0103
5672.0000	-0.0116	-0.0107	-0.0565	0.0204	-0.0168	-0.0204	-0.0030	0.3688	-0.0255	-0.0242	-0.0195	0.0489	-0.0205	-0.0142	-0.2302	-0.0166
5680.0000	-0.0099	-0.0064	-0.0579	0.0349	-0.0138	-0.0173	0.0002	0.3605	-0.0263	-0.0291	-0.0225	0.0363	-0.0196	-0.0159	-0.2496	-0.0188
5688.0000	-0.0075	-0.0018	-0.0560	0.0575	-0.0094	-0.0119	0.0054	0.3637	-0.0213	-0.0257	-0.0200	0.0324	-0.0141	-0.0122	-0.2651	-0.0148
5696.0000	-0.0064	-0.0004	-0.0563	0.0730	-0.0077	-0.0096	0.0076	0.3736	-0.0169	-0.0210	-0.0169	0.0347	-0.0097	-0.0087	-0.2800	-0.0101
5704.0000	-0.0054	-0.0000	-0.0592	0.0777	-0.0077	-0.0094	0.0065	0.3822	-0.0164	-0.0197	-0.0181	0.0339	-0.0089	-0.0080	-0.2964	-0.0091
5712.0000	-0.0029	0.0028	-0.0600	0.0839	-0.0059	-0.0070	0.0064	0.3914	-0.0163	-0.0187	-0.0203	0.0270	-0.0083	-0.0071	-0.3116	-0.0084
5720.0000	0.0002	0.0073	-0.0578	0.0975	-0.0022	-0.0025	0.0090	0.3982	-0.0129	-0.0143	-0.0192	0.0196	-0.0055	-0.0032	-0.3221	-0.0042
5728.0000	0.0014	0.0097	-0.0572	0.1089	-0.0002	0.0002	0.0118	0.3967	-0.0085	-0.0089	-0.0164	0.0182	-0.0023	0.0012	-0.3283	0.0015
5736.0000	0.0006	0.0088	-0.0603	0.1111	-0.0015	-0.0003	0.0127	0.3920	-0.0072	-0.0064	-0.0159	0.0220	-0.0014	0.0026	-0.3352	0.0042
5744.0000	-0.0007	0.0063	-0.0638	0.1091	-0.0038	-0.0017	0.0126	0.3897	-0.0090	-0.0069	-0.0175	0.0240	-0.0022	0.0013	-0.3449	0.0032
5752.0000	-0.0019	0.0037	-0.0649	0.1092	-0.0053	-0.0026	0.0116	0.3850	-0.0109	-0.0080	-0.0198	0.0212	-0.0031	-0.0005	-0.3525	0.0006
5760.0000	-0.0026	0.0019	-0.0643	0.1108	-0.0060	-0.0037	0.0098	0.3751	-0.0124	-0.0091	-0.0231	0.0182	-0.0038	-0.0019	-0.3540	-0.0013
5768.0000	-0.0017	0.0022	-0.0630	0.1115	-0.0055	-0.0041	0.0102	0.3669	-0.0133	-0.0100	-0.0265	0.0179	-0.0037	-0.0028	-0.3524	0.0001
5776.0000	0.0009	0.0047	-0.0612	0.1110	-0.0036	-0.0028	0.0140	0.3624	-0.0123	-0.0095	-0.0274	0.0169	-0.0017	-0.0020	-0.3536	0.0037
5784.0000	0.0032	0.0073	-0.0590	0.1099	-0.0015	-0.0012	0.0155	0.3555	-0.0092	-0.0077	-0.0267	0.0134	0.0021	0.0001	-0.3575	0.0040
5792.0000	0.0050	0.0098	-0.0565	0.1082	0.0005	0.0004	0.0097	0.3457	-0.0064	-0.0065	-0.0270	0.0105	0.0058	0.0019	-0.3608	-0.0003
5800.0000	0.0088	0.0138	-0.0528	0.1041	0.0045	0.0035	0.0011	0.3356	-0.0034	-0.0050	-0.0277	0.0092	0.0095	0.0042	-0.3629	-0.0008
5808.0000	0.0148	0.0192	-0.0487	0.0950	0.0104	0.0085	-0.0012	0.3213	0.0020	-0.0007	-0.0267	0.0081	0.0146	0.0090	-0.3655	0.0070
5816.0000	0.0203	0.0241	-0.0465	0.0815	0.0161	0.0135	0.0040	0.2998	0.0092	0.0048	-0.0260	0.0086	0.0204	0.0148	-0.3700	0.0164
5824.0000	0.0253	0.0292	-0.0461	0.0679	0.0217	0.0191	0.0112	0.2771	0.0159	0.0087	-0.0279	0.0117	0.0254	0.0197	-0.3769	0.0228
5832.0000	0.0320	0.0361	-0.0448	0.0569	0.0291	0.0272	0.0154	0.2576	0.0236	0.0132	-0.0300	0.0147	0.0313	0.0256	-0.3855	0.0329
5840.0000	0.0389	0.0431	-0.0428	0.0472	0.0366	0.0351	0.0161	0.2377	0.0336	0.0213	-0.0303	0.0160	0.0392	0.0342	-0.3936	0.0488
5848.0000	0.0429	0.0476	-0.0417	0.0377	0.0410	0.0396	0.0156	0.2172	0.0425	0.0300	-0.0310	0.0172	0.0455	0.0418	-0.3999	0.0611
5856.0000	0.0458	0.0511	-0.0403	0.0292	0.0441	0.0431	0.0169	0.2015	0.0473	0.0352	-0.0331	0.0169	0.0483	0.0458	-0.4041	0.0645
5864.0000	0.0503	0.0556	-0.0364	0.0223	0.0486	0.0486	0.0205	0.1919	0.0508	0.0398	-0.0334	0.0124	0.0509	0.0491	-0.4042	0.0653
5872.0000	0.0538	0.0589	-0.0316	0.0154	0.0520	0.0528	0.0234	0.1851	0.0553	0.0459	-0.0305	0.0070	0.0552	0.0535	-0.3983	0.0670
5880.0000	0.0531	0.0588	-0.0289	0.0064	0.0513	0.0520	0.0226	0.1804	0.0576	0.0494	-0.0281	0.0038	0.0578	0.0554	-0.3882	0.0656
5888.0000	0.0503	0.0571	-0.0273	-0.0062	0.0489	0.0497	0.0185	0.1778	0.0560	0.0483	-0.0277	-0.0013	0.0568	0.0532	-0.3769	0.0609
5896.0000	0.0484	0.0556	-0.0237	-0.0189	0.0478	0.0493	0.0130	0.1764	0.0536	0.0467	-0.0271	-0.0107	0.0550	0.0508	-0.3626	0.0585
5904.0000	0.0467	0.0539	-0.0176	-0.0246	0.0465	0.0490	0.0079	0.1784	0.0525	0.0470	-0.0247	-0.0204	0.0543	0.0496	-0.3416	0.0587
5912.0000	0.0436	0.0513	-0.0112	-0.0218	0.0432	0.0461	0.0038	0.1875	0.0504	0.0466	-0.0212	-0.0302	0.0529	0.0472	-0.3143	0.0582
5920.0000	0.0390	0.0475	-0.0065	-0.0186	0.0377	0.0411	-0.0009	0.2003	0.0463	0.0436	-0.0170	-0.0450	0.0499	0.0428	-0.2846	0.0567
5928.0000	0.0326	0.0410	-0.0049	-0.0198	0.0303	0.0347	-0.0078	0.2109	0.0410	0.0389	-0.0136	-0.0631	0.0453	0.0375	-0.2558	0.0544
5936.0000	0.0257	0.0332	-0.0048	-0.0189	0.0232	0.0281	-0.0144	0.2203	0.0348	0.0324	-0.0128	-0.0787	0.0386	0.0312	-0.2297	0.0492
5944.0000	0.0214	0.0282	-0.0029	-0.0107	0.0199	0.0243	-0.0175	0.2312	0.0289	0.0255	-0.0131	-0.0916	0.0313	0.0252	-0.2067	0.0437
5952.0000	0.0206	0.0267	0.0004	-0.0019	0.0200	0.0242	-0.0192	0.2394	0.0255	0.0224	-0.0109	-0.1023	0.0269	0.0224	-0.1847	0.0417
5960.0000	0.0205	0.0255	0.0018	0.0014	0.0196	0.0240	-0.0227	0.2424	0.0244	0.0230	-0.0070	-0.1107	0.0258	0.0232	-0.1622	0.0411
5968.0000	0.0201	0.0242	0.0013	0.0041	0.0184	0.0224	-0.0251	0.2461	0.0233	0.0228	-0.0048	-0.1258	0.0251	0.0241	-0.1409	0.0387
5976.0000	0.0203	0.0239	0.0026	0.0106	0.0182	0.0215	-0.0240	0.2533	0.0218	0.0216	-0.0041	-0.1580	0.0239	0.0234	-0.1222	0.0377
5984.0000	0.0187	0.0225	0.0054	0.0157	0.0161	0.0199	-0.0261	0.2552	0.0201	0.0218	-0.0020	-0.1960	0.0227	0.0213	-0.1033	0.0395
5992.0000	0.0134	0.0172	0.0055	0.0157	0.0090	0.0140	-0.0362	0.2452	0.0159	0.0194	0.0003	-0.2208	0.0194	0.0172	-0.0810	0.0365
6000.0000	0.0074	0.0105	0.0030	0.0172	0.0010	0.0054	-0.0466	0.2334	0.0088	0.0096	0.0001	-0.2360	0.0134	0.0114	-0.0563	0.0246
6008.0000	0.0031	0.0046	0.0020	0.0258	-0.0037	-0.0014	-0.0494	0.2339	0.0024	-0.0022	-0.0006	-0.2524	0.0080	0.0061	-0.0315	0.0108
6016.0000	-0.0032	-0.0033	0.0027	0.0355	-0.0086	-0.0070	-0.0503	0.2463	-0.0022	-0.0078	0.0010	-0.2612	0.0044	0.0008	-0.0075	0.0017
6024.0000	-0.0140	-0.0149	0.0026	0.0392	-0.0177	-0.0152	-0.0574	0.2584	-0.0091	-0.0100	0.0031	-0.2558	-0.0014	-0.0076	0.0148	-0.0046
6032.0000	-0.0254	-0.0265	0.0027	0.0397	-0.0284	-0.0252	-0.0676	0.2642	-0.0193	-0.0158	0.0030	-0.2517	-0.0111	-0.0185	0.0365	-0.0116
6040.0000	-0.0340	-0.0354	0.0055	0.0428	-0.0367	-0.0340	-0.0747	0.2676	-0.0288	-0.0248	0.0027	-0.2575	-0.0214	-0.0282	0.0606	-0.0197
6048.0000	-0.0403	-0.0426	0.0095	0.0469	-0.0428	-0.0405	-0.0797	0.2718	-0.0358	-0.0329	0.0043	-0.2598	-0.0298	-0.0354	0.0875	-0.0281
6056.0000	-0.0447	-0.0480	0.0122	0.0466	-0.0470	-0.0449	-0.0831	0.2734	-0.0415	-0.0396	0.0067	-0.2571	-0.0362	-0.0410	0.1132	-0.0359
6064.0000	-0.0480	-0.0521	0.0144	0.0421	-0.0500	-0.0487	-0.0790	0.2704	-0.0459	-0.0454	0.0082	-0.2601	-0.0402	-0.0452	0.1346	-0.0416
6072.0000	-0.0536	-0.0580	0.0169	0.0385	-0.0552	-0.0550	-0.0661	0.2681	-0.0504	-0.0507	0.0093	-0.2584	-0.0434	-0.0501	0.1538	-0.0474
6080.0000	-0.0612	-0.0657	0.0177	0.0376	-0.0627	-0.0629	-0.0536	0.2710	-0.0573	-0.0564	0.0104	-0.2434	-0.0491	-0.0575	0.1717	-0.0565
6088.0000	-0.0665	-0.0712	0.0155	0.0369	-0.0680	-0.0676	-0.0501	0.2755	-0.0646	-0.0621	0.0111	-0.2424	-0.0561	-0.0644	0.1862	-0.0669
6096.0000	-0.0725	-0.0773	0.0121	0.0356	-0.0736	-0.0722	-0.0557	0.2765	-0.0696	-0.0666	0.0105	-0.2577	-0.0619	-0.0683	0.1970	-0.0769
6104.0000	-0.0874	-0.0917	0.0089	0.0352	-0.0873	-0.0855	-0.0669	0.2752	-0.0779	-0.0741	0.0087	-0.2184	-0.0704	-0.0762	0.2070	-0.0922
6112.0000	-0.1070	-0.1105	0.0050	0.0360	-0.1057	-0.1047	-0.0797	0.2761	-0.0950	-0.0901	0.0060	-0.0810	-0.0857	-0.0936	0.2168	-0.1148
6120.0000	-0.1177	-0.1205	0.0008	0.0353	-0.1153	-0.1160	-0.0890	0.2791	-0.1121	-0.1079	0.0037	0.0744	-0.1009	-0.1112	0.2232	-0.1338
6128.0000	-0.1171	-0.1198	-0.0032	0.0321	-0.1144	-0.1167	-0.0928	0.2801	-0.1175	-0.1161	0.0025	0.1442	-0.1064	-0.1173	0.2244	-0.1404
6136.0000	-0.1164	-0.1191	-0.0072	0.0283	-0.1141	-0.1172	-0.0946	0.2782	-0.1154	-0.1157	0.0015	0.1398	-0.1055	-0.1162	0.2226	-0.1413
6144.0000	-0.1196	-0.1224	-0.0114	0.0258	-0.1179	-0.1213	-0.0977	0.2781	-0.1168	-0.1166	0.0003	0.1361	-0.1069	-0.1178	0.2209	-0.1459
6152.0000	-0.1215	-0.1243	-0.0158	0.0244	-0.1198	-0.1227	-0.0999	0.2844	-0.1207	-0.1196	0.0001	0.1492	-0.1103	-0.1211	0.2209	-0.1513
6160.0000	-0.1220	-0.1249	-0.0216	0.0230	-0.1202	-0.1217	-0.0995	0.2965	-0.1217	-0.1201	0.0001	0.1504	-0.1119	-0.1217	0.2216	-0.1532
6168.0000	-0.1253	-0.1289	-0.0298	0.0210	-0.1241	-0.1245	-0.0998	0.3101	-0.1234	-0.1207	-0.0025	0.1414	-0.1143	-0.1235	0.2207	-0.1556
6176.0000	-0.1287	-0.1331	-0.0368	0.0199	-0.1277	-0.1289	-0.1048	0.3230	-0.1285	-0.1246	-0.0070	0.1407	-0.1190	-0.1288	0.2180	-0.1600
6184.0000	-0.1271	-0.1318	-0.0384	0.0213	-0.1250	-0.1288	-0.1129	0.3375	-0.1303	-0.1267	-0.0085	0.1428	-0.1206	-0.1308	0.2173	-0.1593
6192.0000	-0.1234	-0.1280	-0.0354	0.0232	-0.1199	-0.1264	-0.1178	0.3525	-0.1257	-0.1238	-0.0058	0.1393	-0.1178	-0.1268	0.2203	-0.1507
6200.0000	-0.1213	-0.1262	-0.0307	0.0216	-0.1179	-0.1256	-0.1146	0.3619	-0.1215	-0.1211	-0.0029	0.1384	-0.1169	-0.1228	0.2241	-0.1436
6208.0000	-0.1176	-0.1230	-0.0248	0.0158	-0.1158	-0.1234	-0.1046	0.3634	-0.1210	-0.1207	-0.0013	0.1421	-0.1185	-0.1208	0.2269	-0.1470
6216.0000	-0.1102	-0.1162	-0.0182	0.0095	-0.1103	-0.1173	-0.0953	0.3612	-0.1187	-0.1175	0.0016	0.1430	-0.1161	-0.1161	0.2303	-0.1587
6224.0000	-0.1044	-0.1117	-0.0141	0.0046	-0.1054	-0.1123	-0.0933	0.3571	-0.1129	-0.1110	0.0053	0.1430	-0.1098	-0.1095	0.2336	-0.1710
6232.0000	-0.1029	-0.1116	-0.0129	0.0005	-0.1040	-0.1112	-0.0964	0.3479	-0.1082	-0.1074	0.0064	0.1469	-0.1065	-0.1066	0.2334	-0.1771
6240.0000	-0.1012	-0.1101	-0.0103	-0.0012	-0.1022	-0.1095	-0.0982	0.3363	-0.1063	-0.1066	0.0063	0.1499	-0.1061	-0.1068	0.2307	-0.1727
6248.0000	-0.0972	-0.1050	-0.0050	0.0002	-0.0988	-0.1061	-0.0970	0.3295	-0.1048	-0.1033	0.0091	0.1491	-0.1028	-0.1049	0.2292	-0.1596
6256.0000	-0.0947	-0.1026	-0.0010	0.0004	-0.0975	-0.1052	-0.0967	0.3258	-0.1038	-0.0985	0.0137	0.1499	-0.0973	-0.1020	0.2279	-0.1466
6264.0000	-0.0958	-0.1043	0.0002	-0.0034	-0.0999	-0.1078	-0.0989	0.3203	-0.1048	-0.0975	0.0151	0.1507	-0.0952	-0.1024	0.2236	-0.1410
6272.0000	-0.0968	-0.1045	0.0025	-0.0062	-0.1022	-0.1088	-0.1007	0.3196	-0.1061	-0.0993	0.0139	0.1462	-0.0961	-0.1047	0.2188	-0.1407
6280.0000	-0.0959	-0.1020	0.0085	-0.0032	-0.1023	-0.1064	-0.1008	0.3328	-0.1061	-0.0989	0.0154	0.1416	-0.0957	-0.1048	0.2187	-0.1402
6288.0000	-0.0960	-0.1016	0.0145	0.0014	-0.1028	-0.1046	-0.1015	0.3527	-0.1056	-0.0966	0.0198	0.1424	-0.0944	-0.1031	0.2233	-0.1384
6296.0000	-0.0990	-0.1036	0.0179	0.0023	-0.1062	-0.1064	-0.1054	0.3705	-0.1071	-0.0970	0.0223	0.1412	-0.0955	-0.1034	0.2277	-0.1389
6304.0000	-0.1013	-0.1043	0.0209	0.0026	-0.1114	-0.1099	-0.1127	0.3962	-0.1112	-0.1011	0.0220	0.1337	-0.0992	-0.1067	0.2299	-0.1452
6312.0000	-0.0999	-0.1047	0.0261	0.0067	-0.1148	-0.1118	-0.1224	0.4356	-0.1152	-0.1051	0.0229	0.1274	-0.1028	-0.1103	0.2318	-0.1585
6320.0000	-0.0971	-0.1086	0.0322	0.0120	-0.1153	-0.1122	-0.1325	0.4659	-0.1154	-0.1063	0.0259	0.1261	-0.1052	-0.1121	0.2351	-0.1727
6328.0000	-0.0961	-0.1130	0.0372	0.0140	-0.1153	-0.1132	-0.1396	0.4657	-0.1134	-0.1060	0.0278	0.1250	-0.1070	-0.1130	0.2400	-0.1776
6336.0000	-0.0951	-0.1126	0.0412	0.0142	-0.1171	-0.1147	-0.1405	0.4507	-0.1140	-0.1074	0.0278	0.1239	-0.1081	-0.1146	0.2454	-0.1742
6344.0000	-0.0925	-0.1107	0.0445	0.0158	-0.1197	-0.1151	-0.1371	0.4478	-0.1167	-0.1102	0.0285	0.1257	-0.1087	-0.1161	0.2500	-0.1798
6352.0000	-0.0929	-0.1154	0.0459	0.0175	-0.1231	-0.1160	-0.1358	0.4542	-0.1169	-0.1121	0.0296	0.1281	-0.1109	-0.1162	0.2537	-0.2023
6360.0000	-0.0997	-0.1251	0.0453	0.0166	-0.1287	-0.1201	-0.1398	0.4518	-0.1163	-0.1144	0.0278	0.1297	-0.1169	-0.1176	0.2567	-0.2208
6368.0000	-0.1066	-0.1315	0.0456	0.0146	-0.1339	-0.1251	-0.1442	0.4400	-0.1195	-0.1189	0.0243	0.1321	-0.1239	-0.1223	0.2585	-0.2119
6376.0000	-0.1071	-0.1323	0.0495	0.0150	-0.1345	-0.1259	-0.1436	0.4285	-0.1232	-0.1227	0.0238	0.1352	-0.1263	-0.1268	0.2595	-0.1853
6384.0000	-0.1055	-0.1330	0.0547	0.0173	-0.1324	-0.1237	-0.1396	0.4165	-0.1218	-0.1220	0.0265	0.1382	-0.1232	-0.1272	0.2616	-0.1677
6392.0000	-0.1076	-0.1352	0.0578	0.0174	-0.1326	-0.1234	-0.1367	0.4007	-0.1188	-0.1202	0.0278	0.1413	-0.1198	-0.1264	0.2646	-0.1637
6400.0000	-0.1095	-0.1352	0.0591	0.0154	-0.1340	-0.1240	-0.1348	0.3865	-0.1195	-0.1214	0.0259	0.1418	-0.1189	-0.1277	0.2662	-0.1603
6408.0000	-0.1064	-0.1318	0.0615	0.0163	-0.1326	-0.1219	-0.1320	0.3784	-0.1204	-0.1230	0.0244	0.1405	-0.1176	-0.1283	0.2664	-0.1565
6416.0000	-0.1024	-0.1281	0.0642	0.0216	-0.1299	-0.1183	-0.1297	0.3741	-0.1180	-0.1211	0.0251	0.1448	-0.1143	-0.1255	0.2678	-0.1591
6424.0000	-0.1022	-0.1263	0.0636	0.0266	-0.1302	-0.1168	-0.1294	0.3716	-0.1166	-0.1185	0.0250	0.1531	-0.1122	-0.1223	0.2695	-0.1611
6432.0000	-0.1025	-0.1254	0.0596	0.0292	-0.1317	-0.1161	-0.1287	0.3721	-0.1187	-0.1183	0.0224	0.1532	-0.1135	-0.1210	0.2676	-0.1557
6440.0000	-0.0997	-0.1240	0.0556	0.0336	-0.1303	-0.1135	-0.1255	0.3756	-0.1194	-0.1182	0.0191	0.1505	-0.1162	-0.1195	0.2621	-0.1560
6448.0000	-0.0956	-0.1204	0.0528	0.0415	-0.1266	-0.1094	-0.1210	0.3817	-0.1159	-0.1157	0.0165	0.1581	-0.1179	-0.1167	0.2558	-0.1717
6456.0000	-0.0922	-0.1159	0.0494	0.0485	-0.1239	-0.1059	-0.1181	0.3895	-0.1116	-0.1121	0.0140	0.1613	-0.1176	-0.1137	0.2493	-0.1856
6464.0000	-0.0925	-0.1160	0.0453	0.0521	-0.1252	-0.1066	-0.1197	0.3935	-0.1096	-0.1098	0.0115	0.1528	-0.1163	-0.1118	0.2406	-0.1801
6472.0000	-0.0989	-0.1224	0.0421	0.0546	-0.1316	-0.1141	-0.1287	0.3873	-0.1118	-0.1114	0.0090	0.1812	-0.1184	-0.1137	0.2296	-0.1663
6480.0000	-0.1062	-0.1270	0.0400	0.0568	-0.1378	-0.1225	-0.1416	0.3716	-0.1187	-0.1181	0.0060	0.2744	-0.1258	-0.1212	0.2178	-0.1617
6488.0000	-0.1031	-0.1212	0.0385	0.0579	-0.1341	-0.1202	-0.1466	0.3509	-0.1230	-0.1238	0.0027	0.3525	-0.1305	-0.1268	0.2067	-0.1613
6496.0000	-0.0891	-0.1080	0.0395	0.0604	-0.1197	-0.1057	-0.1365	0.3267	-0.1151	-0.1185	0.0009	0.3287	-0.1233	-0.1203	0.1979	-0.1512
6504.0000	-0.0746	-0.0934	0.0437	0.0665	-0.1046	-0.0904	-0.1185	0.3011	-0.0984	-0.1036	0.0016	0.2457	-0.1074	-0.1044	0.1923	-0.1323
6512.0000	-0.0632	-0.0770	0.0465	0.0728	-0.0943	-0.0796	-0.1035	0.2780	-0.0843	-0.0897	0.0037	0.1952	-0.0933	-0.0905	0.1869	-0.1149
6520.0000	-0.0507	-0.0601	0.0438	0.0764	-0.0840	-0.0691	-0.0924	0.2560	-0.0745	-0.0798	0.0050	0.1706	-0.0836	-0.0804	0.1793	-0.1067
6528.0000	-0.0403	-0.0511	0.0386	0.0793	-0.0720	-0.0592	-0.0810	0.2274	-0.0642	-0.0682	0.0030	0.1221	-0.0748	-0.0685	0.1722	-0.1096
6536.0000	-0.0371	-0.0508	0.0357	0.0827	-0.0637	-0.0554	-0.0698	0.1903	-0.0559	-0.0559	-0.0027	0.0723	-0.0670	-0.0572	0.1677	-0.1165
6544.0000	-0.0343	-0.0486	0.0342	0.0849	-0.0600	-0.0544	-0.0622	0.1539	-0.0522	-0.0497	-0.0075	0.0622	-0.0608	-0.0527	0.1608	-0.1135
6552.0000	-0.0246	-0.0417	0.0302	0.0863	-0.0556	-0.0485	-0.0572	0.1288	-0.0468	-0.0480	-0.0075	0.0656	-0.0522	-0.0513	0.1459	-0.0988
6560.0000	-0.0154	-0.0392	0.0251	0.0891	-0.0492	-0.0395	-0.0511	0.1144	-0.0364	-0.0439	-0.0060	0.0471	-0.0415	-0.0462	0.1260	-0.0838
6568.0000	-0.0145	-0.0431	0.0228	0.0932	-0.0435	-0.0343	-0.0411	0.1016	-0.0274	-0.0372	-0.0089	0.0215	-0.0350	-0.0393	0.1095	-0.0693
6576.0000	-0.0156	-0.0437	0.0230	0.0984	-0.0385	-0.0320	-0.0281	0.0849	-0.0236	-0.0321	-0.0138	0.0059	-0.0337	-0.0346	0.1002	-0.0451
6584.0000	-0.0108	-0.0379	0.0218	0.1065	-0.0331	-0.0287	-0.0167	0.0690	-0.0207	-0.0285	-0.0137	-0.0089	-0.0320	-0.0310	0.0943	-0.0156
6592.0000	-0.0044	-0.0333	0.0187	0.1158	-0.0285	-0.0254	-0.0104	0.0596	-0.0168	-0.0248	-0.0093	-0.0214	-0.0282	-0.0269	0.0866	0.0032
6600.0000	-0.0011	-0.0316	0.0153	0.1220	-0.0253	-0.0238	-0.0072	0.0529	-0.0141	-0.0221	-0.0078	-0.0251	-0.0251	-0.0244	0.0764	0.0129
6608.0000	0.0015	-0.0281	0.0120	0.1262	-0.0225	-0.0219	-0.0032	0.0422	-0.0117	-0.0204	-0.0106	-0.0337	-0.0226	-0.0228	0.0664	0.0269
6616.0000	0.0062	-0.0224	0.0081	0.1324	-0.0189	-0.0184	0.0019	0.0287	-0.0079	-0.0179	-0.0132	-0.0504	-0.0179	-0.0199	0.0579	0.0397
6624.0000	0.0122	-0.0168	0.0041	0.1393	-0.0138	-0.0138	0.0064	0.0166	-0.0034	-0.0142	-0.0146	-0.0549	-0.0115	-0.0155	0.0484	0.0396
6632.0000	0.0193	-0.0097	0.0003	0.1444	-0.0067	-0.0076	0.0101	0.0060	0.0028	-0.0092	-0.0165	-0.0488	-0.0040	-0.0103	0.0359	0.0366
6640.0000	0.0262	-0.0020	-0.0047	0.1490	-0.0004	-0.0015	0.0126	-0.0034	0.0112	-0.0031	-0.0188	-0.0537	0.0045	-0.0044	0.0210	0.0464
6648.0000	0.0291	0.0013	-0.0109	0.1530	0.0025	0.0012	0.0135	-0.0105	0.0172	0.0016	-0.0211	-0.0609	0.0109	-0.0001	0.0044	0.0609
6656.0000	0.0285	-0.0001	-0.0154	0.1544	0.0034	0.0015	0.0162	-0.0163	0.0184	0.0028	-0.0240	-0.0515	0.0126	0.0009	-0.0123	0.0663
6664.0000	0.0279	-0.0017	-0.0167	0.1566	0.0035	0.0014	0.0217	-0.0225	0.0193	0.0034	-0.0267	-0.0408	0.0125	0.0009	-0.0248	0.0672
6672.0000	0.0270	-0.0035	-0.0172	0.1641	0.0003	-0.0015	0.0233	-0.0274	0.0208	0.0043	-0.0272	-0.0441	0.0124	0.0005	-0.0312	0.0723
6680.0000	0.0255	-0.0068	-0.0186	0.1723	-0.0048	-0.0066	0.0177	-0.0333	0.0182	0.0025	-0.0274	-0.0449	0.0095	-0.0026	-0.0358	0.0781
6688.0000	0.0282	-0.0069	-0.0198	0.1758	-0.0053	-0.0071	0.0131	-0.0459	0.0145	-0.0007	-0.0294	-0.0383	0.0053	-0.0060	-0.0434	0.0809
6696.0000	0.0368	-0.0011	-0.0197	0.1805	-0.0004	-0.0016	0.0154	-0.0615	0.0174	0.0008	-0.0309	-0.0417	0.0063	-0.0039	-0.0524	0.0834
6704.0000	0.0437	0.0045	-0.0197	0.1932	0.0036	0.0034	0.0167	-0.0710	0.0237	0.0067	-0.0301	-0.0486	0.0127	0.0018	-0.0620	0.0828
6712.0000	0.0450	0.0082	-0.0207	0.2080	0.0063	0.0074	0.0113	-0.0771	0.0266	0.0106	-0.0297	-0.0402	0.0189	0.0055	-0.0750	0.0759
6720.0000	0.0456	0.0171	-0.0211	0.2162	0.0135	0.0170	0.0079	-0.0900	0.0302	0.0136	-0.0301	-0.0288	0.0262	0.0094	-0.0898	0.0693
6728.0000	0.0480	0.0318	-0.0199	0.2175	0.0239	0.0307	0.0145	-0.1070	0.0394	0.0213	-0.0283	-0.0273	0.0387	0.0185	-0.1004	0.0693
6736.0000	0.0485	0.0430	-0.0210	0.2138	0.0311	0.0392	0.0235	-0.1233	0.0470	0.0312	-0.0253	-0.0186	0.0520	0.0286	-0.1090	0.0738
6744.0000	0.0467	0.0478	-0.0298	0.2066	0.0342	0.0414	0.0257	-0.1487	0.0476	0.0365	-0.0257	-0.0024	0.0592	0.0334	-0.1226	0.0840
6752.0000	0.0469	0.0533	-0.0458	0.2016	0.0367	0.0427	0.0242	-0.1873	0.0472	0.0381	-0.0278	-0.0042	0.0626	0.0351	-0.1375	0.1016
6760.0000	0.0491	0.0602	-0.0604	0.2024	0.0391	0.0443	0.0281	-0.2217	0.0505	0.0405	-0.0269	-0.0180	0.0671	0.0374	-0.1421	0.1156
6768.0000	0.0498	0.0617	-0.0679	0.2030	0.0411	0.0444	0.0396	-0.2419	0.0553	0.0434	-0.0257	-0.0189	0.0715	0.0397	-0.1372	0.1167
6776.0000	0.0477	0.0581	-0.0739	0.1990	0.0431	0.0435	0.0518	-0.2659	0.0621	0.0446	-0.0302	-0.0204	0.0728	0.0411	-0.1344	0.1145
6784.0000	0.0446	0.0576	-0.0867	0.1946	0.0443	0.0421	0.0574	-0.3073	0.0717	0.0446	-0.0381	-0.0412	0.0715	0.0421	-0.1362	0.1172
6792.0000	0.0447	0.0637	-0.1024	0.1935	0.0467	0.0425	0.0585	-0.3519	0.0791	0.0450	-0.0425	-0.0595	0.0694	0.0430	-0.1346	0.1151
6800.0000	0.0520	0.0721	-0.1091	0.1942	0.0560	0.0505	0.0664	-0.3850	0.0830	0.0483	-0.0428	-0.0637	0.0696	0.0468	-0.1291	0.1054
6808.0000	0.0651	0.0799	-0.1058	0.1972	0.0710	0.0657	0.0849	-0.4137	0.0904	0.0578	-0.0423	-0.0769	0.0763	0.0576	-0.1289	0.1047
6816.0000	0.0772	0.0885	-0.1027	0.2034	0.0830	0.0784	0.1032	-0.4485	0.1021	0.0713	-0.0415	-0.0953	0.0880	0.0717	-0.1377	0.1182
6824.0000	0.0858	0.0979	-0.1038	0.2102	0.0898	0.0853	0.1120	-0.4868	0.1122	0.0823	-0.0396	-0.0928	0.0979	0.0812	-0.1491	0.1302
6832.0000	0.0924	0.1036	-0.1032	0.2186	0.0966	0.0923	0.1164	-0.5237	0.1199	0.0902	-0.0373	-0.0850	0.1039	0.0871	-0.1564	0.1371
6840.0000	0.0951	0.1027	-0.0984	0.2324	0.1029	0.0991	0.1240	-0.5590	0.1269	0.0979	-0.0347	-0.0944	0.1075	0.0935	-0.1588	0.1518
6848.0000	0.0932	0.0999	-0.0946	0.2460	0.1052	0.1003	0.1332	-0.5937	0.1292	0.1034	-0.0313	-0.0957	0.1080	0.0973	-0.1594	0.1729
6856.0000	0.0937	0.1017	-0.0939	0.2522	0.1089	0.1010	0.1414	-0.6312	0.1275	0.1050	-0.0281	-0.0805	0.1058	0.0970	-0.1611	0.1875
6864.0000	0.1009	0.1059	-0.0927	0.2563	0.1186	0.1082	0.1509	-0.6753	0.1310	0.1079	-0.0264	-0.0845	0.1060	0.0999	-0.1643	0.1958
6872.0000	0.1076	0.1070	-0.0897	0.2638	0.1274	0.1165	0.1618	-0.7235	0.1393	0.1148	-0.0247	-0.0980	0.1099	0.1079	-0.1686	0.2054
6880.0000	0.1097	0.1079	-0.0879	0.2665	0.1315	0.1206	0.1715	-0.7724	0.1436	0.1207	-0.0229	-0.0724	0.1135	0.1141	-0.1758	0.2127
6888.0000	0.1125	0.1149	-0.0874	0.2624	0.1370	0.1269	0.1806	-0.8255	0.1466	0.1246	-0.0231	-0.0311	0.1173	0.1185	-0.1871	0.2138
6896.0000	0.1162	0.1221	-0.0857	0.2642	0.1435	0.1353	0.1886	-0.8836	0.1570	0.1313	-0.0252	-0.0183	0.1230	0.1265	-0.1995	0.2115
6904.0000	0.1134	0.1193	-0.0832	0.2720	0.1403	0.1337	0.1908	-0.9355	0.1671	0.1377	-0.0262	0.0266	0.1235	0.1322	-0.2092	0.2024
6912.0000	0.1052	0.1090	-0.0814	0.2756	0.1279	0.1228	0.1874	-0.9716	0.1649	0.1345	-0.0251	0.1753	0.1126	0.1267	-0.2160	0.1825
6920.0000	0.0995	0.1012	-0.0808	0.2829	0.1186	0.1180	0.1830	-0.9960	0.1552	0.1222	-0.0233	0.3618	0.0984	0.1162	-0.2218	0.1643
6928.0000	0.0968	0.0979	-0.0824	0.3000	0.1159	0.1211	0.1773	-1.0209	0.1487	0.1102	-0.0219	0.4820	0.0916	0.1110	-0.2278	0.1600
6936.0000	0.0945	0.0995	-0.0872	0.2985	0.1165	0.1215	0.1705	-1.0590	0.1463	0.1044	-0.0226	0.5413	0.0909	0.1102	-0.2359	0.1593
6944.0000	0.0976	0.1100	-0.0921	0.2634	0.1237	0.1228	0.1714	-1.1200	0.1494	0.1065	-0.0265	0.5868	0.0936	0.1126	-0.2459	0.1494
6952.0000	0.1078	0.1266	-0.0938	0.2380	0.1391	0.1359	0.1838	-1.2013	0.1623	0.1172	-0.0300	0.6186	0.1026	0.1238	-0.2517	0.1377
6960.0000	0.1168	0.1386	-0.0953	0.2506	0.1542	0.1561	0.1968	-1.2842	0.1796	0.1320	-0.0293	0.6375	0.1163	0.1410	-0.2484	0.1338
6968.0000	0.1219	0.1459	-0.1019	0.2508	0.1647	0.1708	0.2036	-1.3532	0.1925	0.1453	-0.0275	0.6548	0.1273	0.1536	-0.2397	0.1320
6976.0000	0.1302	0.1575	-0.1108	0.1980	0.1759	0.1797	0.2119	-1.4142	0.2037	0.1591	-0.0297	0.6523	0.1362	0.1620	-0.2279	0.1278
6984.0000	0.1421	0.1719	-0.1159	0.1407	0.1885	0.1866	0.2245	-1.4823	0.2173	0.1755	-0.0331	0.6321	0.1477	0.1738	-0.2060	0.1268
6992.0000	0.1516	0.1802	-0.1171	0.1295	0.1972	0.1916	0.2326	-1.5579	0.2290	0.1883	-0.0337	0.6395	0.1585	0.1864	-0.1735	0.1290
7000.0000	0.1599	0.1847	-0.1189	0.1310	0.2039	0.1968	0.2367	-1.6262	0.2380	0.1945	-0.0341	0.6695	0.1658	0.1944	-0.1464	0.1242
7008.0000	0.1717	0.1936	-0.1224	0.1048	0.2131	0.2055	0.2459	-1.6774	0.2501	0.2011	-0.0372	0.6784	0.1746	0.2021	-0.1383	0.1068
7016.0000	0.1848	0.2060	-0.1257	0.0798	0.2227	0.2147	0.2584	-1.7179	0.2641	0.2104	-0.0389	0.6934	0.1867	0.2122	-0.1430	0.0864
7024.0000	0.1973	0.2182	-0.1293	0.0864	0.2320	0.2230	0.2661	-1.7567	0.2764	0.2173	-0.0372	0.7410	0.1980	0.2212	-0.1504	0.0808
7032.0000	0.2098	0.2296	-0.1334	0.1002	0.2425	0.2331	0.2709	-1.7937	0.2908	0.2240	-0.0373	0.7494	0.2095	0.2305	-0.1638	0.0958
7040.0000	0.2169	0.2359	-0.1356	0.1047	0.2474	0.2398	0.2756	-1.8261	0.3050	0.2334	-0.0416	0.7139	0.2209	0.2403	-0.1893	0.1108
7048.0000	0.2175	0.2375	-0.1352	0.1221	0.2443	0.2384	0.2758	-1.8575	0.3085	0.2371	-0.0449	0.7621	0.2242	0.2418	-0.2230	0.1047
7056.0000	0.2312	0.2540	-0.1357	0.1516	0.2553	0.2473	0.2802	-1.8866	0.3111	0.2346	-0.0456	0.8427	0.2256	0.2396	-0.2599	0.0986
7064.0000	0.2744	0.3011	-0.1375	0.1575	0.2990	0.2876	0.3097	-1.9045	0.3383	0.2504	-0.0486	0.6595	0.2513	0.2605	-0.3002	0.1336
7072.0000	0.3284	0.3570	-0.1358	0.1347	0.3535	0.3434	0.3612	-1.9142	0.3872	0.2983	-0.0541	0.1597	0.3070	0.3126	-0.3401	0.2039
7080.0000	0.3614	0.3871	-0.1290	0.1149	0.3833	0.3785	0.4032	-1.9322	0.4257	0.3508	-0.0559	-0.2806	0.3586	0.3634	-0.3719	0.2602
7088.0000	0.3704	0.3900	-0.1217	0.1085	0.3875	0.3867	0.4198	-1.9611	0.4380	0.3758	-0.0530	-0.3898	0.3787	0.3844	-0.3966	0.2838
7096.0000	0.3744	0.3895	-0.1182	0.0971	0.3886	0.3895	0.4257	-1.9880	0.4366	0.3785	-0.0512	-0.3237	0.3796	0.3862	-0.4208	0.2995
7104.0000	0.3807	0.3954	-0.1175	0.0725	0.3940	0.3956	0.4335	-2.0114	0.4341	0.3802	-0.0522	-0.2896	0.3826	0.3887	-0.4436	0.3181
7112.0000	0.3841	0.4005	-0.1176	0.0430	0.3972	0.3973	0.4377	-2.0384	0.4361	0.3836	-0.0525	-0.2674	0.3878	0.3930	-0.4577	0.3261
7120.0000	0.3810	0.3999	-0.1180	0.0169	0.3942	0.3912	0.4331	-2.0584	0.4429	0.3826	-0.0509	-0.2185	0.3890	0.3941	-0.4627	0.3279
7128.0000	0.3699	0.3908	-0.1171	-0.0019	0.3821	0.3784	0.4224	-2.0584	0.4387	0.3768	-0.0500	-0.1734	0.3850	0.3901	-0.4636	0.3404
7136.0000	0.3536	0.3729	-0.1123	-0.0170	0.3616	0.3601	0.4090	-2.0515	0.4091	0.3649	-0.0499	-0.0772	0.3726	0.3761	-0.4621	0.3507
7144.0000	0.3439	0.3588	-0.1046	-0.0393	0.3473	0.3456	0.3984	-2.0548	0.3774	0.3470	-0.0489	0.1170	0.3547	0.3555	-0.4576	0.3308
7152.0000	0.3482	0.3620	-0.0974	-0.0688	0.3516	0.3467	0.3982	-2.0625	0.3794	0.3357	-0.0473	0.2701	0.3477	0.3460	-0.4537	0.2879
7160.0000	0.3567	0.3750	-0.0912	-0.0921	0.3643	0.3583	0.4071	-2.0710	0.4051	0.3405	-0.0468	0.2549	0.3575	0.3544	-0.4547	0.2617
7168.0000	0.3596	0.3825	-0.0832	-0.1089	0.3704	0.3663	0.4161	-2.0983	0.4161	0.3509	-0.0469	0.1781	0.3674	0.3654	-0.4605	0.2751
7176.0000	0.3637	0.3874	-0.0715	-0.1295	0.3756	0.3711	0.4228	-2.1519	0.4107	0.3560	-0.0459	0.1761	0.3667	0.3703	-0.4685	0.3097
7184.0000	0.3764	0.4002	-0.0566	-0.1473	0.3892	0.3820	0.4302	-2.2147	0.4169	0.3630	-0.0425	0.2048	0.3674	0.3792	-0.4750	0.3334
7192.0000	0.3908	0.4168	-0.0402	-0.1535	0.4046	0.3975	0.4364	-2.2757	0.4366	0.3789	-0.0372	0.1974	0.3776	0.3958	-0.4766	0.3406
7200.0000	0.4008	0.4279	-0.0250	-0.1643	0.4131	0.4088	0.4394	-2.3401	0.4475	0.3945	-0.0310	0.1964	0.3878	0.4098	-0.4744	0.3555
7208.0000	0.4101	0.4353	-0.0130	-0.1905	0.4195	0.4151	0.4454	-2.4083	0.4458	0.4031	-0.0258	0.2228	0.3932	0.4173	-0.4732	0.3897
7216.0000	0.4210	0.4433	-0.0031	-0.2077	0.4283	0.4210	0.4576	-2.4786	0.4469	0.4114	-0.0227	0.2285	0.4013	0.4239	-0.4743	0.4203
7224.0000	0.4313	0.4507	0.0074	-0.2079	0.4359	0.4299	0.4691	-2.5562	0.4549	0.4215	-0.0203	0.2136	0.4130	0.4301	-0.4738	0.4303
7232.0000	0.4443	0.4596	0.0186	-0.2363	0.4428	0.4437	0.4757	-2.6374	0.4612	0.4276	-0.0169	0.2171	0.4228	0.4354	-0.4707	0.4387
7240.0000	0.4625	0.4740	0.0284	-0.3230	0.4544	0.4618	0.4820	-2.7055	0.4652	0.4331	-0.0122	0.2296	0.4335	0.4454	-0.4646	0.4511
7248.0000	0.4775	0.4879	0.0370	-0.4217	0.4685	0.4779	0.4885	-2.7562	0.4763	0.4479	-0.0083	0.2363	0.4501	0.4614	-0.4495	0.4238
7256.0000	0.4811	0.4925	0.0466	-0.4718	0.4778	0.4859	0.4877	-2.8016	0.4970	0.4684	-0.0068	0.2598	0.4645	0.4745	-0.4201	0.3307
7264.0000	0.4795	0.4916	0.0576	-0.4783	0.4813	0.4881	0.4776	-2.8491	0.5096	0.4816	-0.0057	0.2874	0.4677	0.4809	-0.3837	0.2286
7272.0000	0.4808	0.4925	0.0679	-0.4842	0.4823	0.4898	0.4669	-2.8976	0.4916	0.4844	-0.0017	0.2775	0.4643	0.4859	-0.3523	0.1981
7280.0000	0.4820	0.4919	0.0764	-0.5054	0.4806	0.4909	0.4608	-2.9466	0.4483	0.4831	0.0055	0.2521	0.4619	0.4905	-0.3257	0.2499
7288.0000	0.4788	0.4862	0.0815	-0.5301	0.4763	0.4891	0.4552	-3.0041	0.4131	0.4800	0.0118	0.2578	0.4591	0.4899	-0.2961	0.3335
7296.0000	0.4768	0.4825	0.0817	-0.5512	0.4750	0.4869	0.4480	-3.0902	0.4038	0.4765	0.0141	0.2715	0.4548	0.4858	-0.2633	0.4081
7304.0000	0.4800	0.4855	0.0787	-0.5667	0.4793	0.4883	0.4442	-3.2015	0.4030	0.4781	0.0144	0.2596	0.4550	0.4857	-0.2320	0.4658
7312.0000	0.4802	0.4853	0.0765	-0.5725	0.4813	0.4895	0.4449	-3.2615	0.3926	0.4844	0.0161	0.2478	0.4609	0.4895	-0.2018	0.5080
7320.0000	0.4683	0.4717	0.0757	-0.5685	0.4722	0.4800	0.4401	-3.1854	0.3767	0.4851	0.0185	0.2496	0.4611	0.4879	-0.1700	0.5332
7328.0000	0.4488	0.4501	0.0737	-0.5603	0.4545	0.4588	0.4238	-3.0183	0.3611	0.4750	0.0190	0.2323	0.4472	0.4750	-0.1395	0.5400
7336.0000	0.4331	0.4332	0.0703	-0.5509	0.4391	0.4392	0.4049	-2.8990	0.3424	0.4617	0.0173	0.1995	0.4279	0.4560	-0.1144	0.5298
7344.0000	0.4245	0.4243	0.0683	-0.5411	0.4315	0.4309	0.3938	-2.8723	0.3254	0.4521	0.0157	0.1919	0.4157	0.4409	-0.0955	0.5120
7352.0000	0.4203	0.4207	0.0676	-0.5321	0.4282	0.4279	0.3880	-2.8737	0.3206	0.4441	0.0152	0.2018	0.4117	0.4335	-0.0835	0.5019
7360.0000	0.4191	0.4206	0.0664	-0.5220	0.4257	0.4223	0.3808	-2.8812	0.3254	0.4365	0.0151	0.1963	0.4099	0.4304	-0.0774	0.5028
7368.0000	0.4176	0.4189	0.0650	-0.5068	0.4218	0.4154	0.3709	-2.9023	0.3283	0.4336	0.0149	0.1877	0.4086	0.4282	-0.0699	0.5034
7376.0000	0.4059	0.4053	0.0639	-0.4878	0.4100	0.4056	0.3560	-2.8620	0.3234	0.4314	0.0151	0.1907	0.4047	0.4228	-0.0542	0.4962
7384.0000	0.3823	0.3801	0.0623	-0.4685	0.3885	0.3874	0.3328	-2.7272	0.3088	0.4171	0.0156	0.1776	0.3900	0.4071	-0.0346	0.4876
