Time	FP1	FP2	C3	C4	P7	P8	O1	O2	F7	F8	F3	F4	T7	T8	P3	P4
0.0000	-0.0017	0.0001	-0.0012	0.0009	-0.0009	0.0015	-0.0006	-0.0008	-0.0000	-0.0000	-0.0011	-0.0016	-0.0009	0.0002	-0.0002	-0.0002
8.0000	-0.0017	0.0001	-0.0013	0.0007	-0.0009	0.0016	-0.0006	-0.0008	-0.0000	-0.0000	-0.0011	-0.0018	-0.0009	0.0002	-0.0002	-0.0002
16.0000	-0.0017	0.0001	-0.0012	0.0005	-0.0009	0.0016	-0.0006	-0.0008	-0.0000	-0.0000	-0.0011	-0.0020	-0.0009	0.0002	-0.0002	-0.0002
24.0000	-0.0017	0.0000	-0.0012	0.0003	-0.0009	0.0017	-0.0006	-0.0008	-0.0000	-0.0000	-0.0010	-0.0022	-0.0009	0.0002	-0.0002	-0.0002
32.0000	-0.0017	0.0000	-0.0013	0.0001	-0.0009	0.0017	-0.0006	-0.0008	-0.0000	-0.0000	-0.0010	-0.0023	-0.0008	0.0002	-0.0002	-0.0002
40.0000	-0.0017	-0.0000	-0.0013	-0.0002	-0.0009	0.0018	-0.0006	-0.0008	-0.0000	-0.0000	-0.0010	-0.0026	-0.0008	0.0002	-0.0002	-0.0002
48.0000	-0.0017	-0.0001	-0.0013	-0.0004	-0.0009	0.0018	-0.0006	-0.0008	-0.0000	-0.0000	-0.0010	-0.0029	-0.0008	0.0002	-0.0003	-0.0002
56.0000	-0.0018	-0.0001	-0.0013	-0.0008	-0.0009	0.0019	-0.0007	-0.0008	-0.0000	-0.0000	-0.0010	-0.0031	-0.0008	0.0001	-0.0003	-0.0002
64.0000	-0.0018	-0.0002	-0.0013	-0.0011	-0.0009	0.0020	-0.0007	-0.0008	-0.0000	-0.0000	-0.0010	-0.0033	-0.0008	0.0001	-0.0003	-0.0002
72.0000	-0.0018	-0.0002	-0.0013	-0.0014	-0.0009	0.0020	-0.0007	-0.0008	-0.0000	-0.0000	-0.0010	-0.0036	-0.0008	0.0001	-0.0003	-0.0002
80.0000	-0.0018	-0.0002	-0.0013	-0.0017	-0.0009	0.0021	-0.0008	-0.0009	-0.0000	-0.0000	-0.0010	-0.0037	-0.0008	0.0001	-0.0003	-0.0002
88.0000	-0.0018	-0.0003	-0.0014	-0.0019	-0.0010	0.0021	-0.0008	-0.0009	-0.0000	-0.0000	-0.0010	-0.0038	-0.0008	0.0001	-0.0003	-0.0003
96.0000	-0.0019	-0.0003	-0.0014	-0.0022	-0.0010	0.0022	-0.0009	-0.0009	-0.0000	-0.0000	-0.0011	-0.0038	-0.0008	0.0001	-0.0003	-0.0003
104.0000	-0.0020	-0.0004	-0.0014	-0.0025	-0.0011	0.0022	-0.0010	-0.0010	-0.0000	-0.0000	-0.0012	-0.0037	-0.0009	0.0001	-0.0003	-0.0003
112.0000	-0.0020	-0.0004	-0.0015	-0.0028	-0.0012	0.0023	-0.0011	-0.0011	-0.0000	-0.0000	-0.0013	-0.0035	-0.0009	0.0001	-0.0003	-0.0004
120.0000	-0.0022	-0.0005	-0.0016	-0.0032	-0.0013	0.0024	-0.0012	-0.0012	-0.0000	-0.0000	-0.0014	-0.0032	-0.0010	0.0000	-0.0004	-0.0004
128.0000	-0.0023	-0.0006	-0.0017	-0.0035	-0.0014	0.0024	-0.0013	-0.0014	-0.0000	-0.0000	-0.0016	-0.0031	-0.0011	0.0000	-0.0004	-0.0005
136.0000	-0.0024	-0.0006	-0.0018	-0.0039	-0.0014	0.0025	-0.0014	-0.0015	-0.0000	-0.0000	-0.0017	-0.0029	-0.0012	0.0000	-0.0005	-0.0006
144.0000	-0.0024	-0.0007	-0.0019	-0.0042	-0.0015	0.0025	-0.0015	-0.0016	-0.0000	-0.0000	-0.0019	-0.0027	-0.0013	-0.0000	-0.0005	-0.0007
152.0000	-0.0025	-0.0008	-0.0021	-0.0045	-0.0016	0.0026	-0.0015	-0.0017	-0.0000	-0.0000	-0.0020	-0.0026	-0.0013	-0.0000	-0.0006	-0.0007
160.0000	-0.0025	-0.0008	-0.0022	-0.0048	-0.0017	0.0026	-0.0016	-0.0017	-0.0000	-0.0000	-0.0021	-0.0024	-0.0014	-0.0001	-0.0006	-0.0008
168.0000	-0.0025	-0.0009	-0.0022	-0.0049	-0.0017	0.0027	-0.0017	-0.0018	-0.0000	-0.0000	-0.0022	-0.0021	-0.0014	-0.0001	-0.0006	-0.0009
176.0000	-0.0026	-0.0010	-0.0023	-0.0051	-0.0018	0.0028	-0.0017	-0.0018	-0.0000	-0.0000	-0.0022	-0.0019	-0.0015	-0.0001	-0.0007	-0.0009
184.0000	-0.0027	-0.0010	-0.0024	-0.0052	-0.0018	0.0028	-0.0017	-0.0019	-0.0000	-0.0000	-0.0022	-0.0018	-0.0015	-0.0001	-0.0007	-0.0010
192.0000	-0.0027	-0.0011	-0.0024	-0.0052	-0.0018	0.0028	-0.0018	-0.0019	-0.0000	-0.0000	-0.0022	-0.0015	-0.0016	-0.0001	-0.0007	-0.0010
200.0000	-0.0028	-0.0012	-0.0024	-0.0052	-0.0018	0.0029	-0.0018	-0.0019	-0.0000	-0.0000	-0.0022	-0.0012	-0.0016	-0.0002	-0.0007	-0.0010
208.0000	-0.0029	-0.0013	-0.0024	-0.0051	-0.0018	0.0030	-0.0018	-0.0019	-0.0000	-0.0000	-0.0021	-0.0010	-0.0016	-0.0002	-0.0007	-0.0011
216.0000	-0.0029	-0.0014	-0.0023	-0.0048	-0.0018	0.0030	-0.0018	-0.0019	-0.0000	-0.0000	-0.0021	-0.0007	-0.0015	-0.0002	-0.0007	-0.0011
224.0000	-0.0029	-0.0014	-0.0021	-0.0046	-0.0017	0.0030	-0.0018	-0.0019	-0.0000	-0.0000	-0.0020	-0.0004	-0.0015	-0.0002	-0.0007	-0.0010
232.0000	-0.0031	-0.0015	-0.0020	-0.0045	-0.0017	0.0031	-0.0018	-0.0019	-0.0000	-0.0000	-0.0020	-0.0002	-0.0014	-0.0003	-0.0007	-0.0010
240.0000	-0.0031	-0.0016	-0.0018	-0.0044	-0.0016	0.0032	-0.0017	-0.0018	-0.0000	-0.0000	-0.0020	-0.0001	-0.0014	-0.0003	-0.0006	-0.0010
248.0000	-0.0030	-0.0017	-0.0015	-0.0040	-0.0014	0.0032	-0.0016	-0.0017	-0.0000	-0.0000	-0.0019	0.0001	-0.0012	-0.0003	-0.0006	-0.0009
256.0000	-0.0028	-0.0018	-0.0012	-0.0037	-0.0012	0.0032	-0.0015	-0.0015	-0.0000	-0.0000	-0.0016	0.0005	-0.0010	-0.0004	-0.0005	-0.0008
264.0000	-0.0029	-0.0019	-0.0011	-0.0037	-0.0012	0.0033	-0.0015	-0.0015	-0.0000	-0.0000	-0.0015	0.0005	-0.0009	-0.0004	-0.0005	-0.0008
272.0000	-0.0033	-0.0020	-0.0010	-0.0041	-0.0013	0.0033	-0.0016	-0.0017	-0.0000	-0.0000	-0.0016	0.0003	-0.0010	-0.0004	-0.0005	-0.0009
280.0000	-0.0034	-0.0021	-0.0010	-0.0045	-0.0014	0.0034	-0.0018	-0.0018	-0.0000	-0.0000	-0.0018	0.0001	-0.0011	-0.0005	-0.0006	-0.0010
288.0000	-0.0036	-0.0022	-0.0010	-0.0049	-0.0015	0.0035	-0.0019	-0.0020	-0.0000	-0.0000	-0.0019	-0.0001	-0.0012	-0.0005	-0.0006	-0.0010
296.0000	-0.0037	-0.0023	-0.0010	-0.0053	-0.0016	0.0036	-0.0020	-0.0021	-0.0000	-0.0000	-0.0021	-0.0004	-0.0012	-0.0006	-0.0007	-0.0011
304.0000	-0.0039	-0.0024	-0.0010	-0.0057	-0.0016	0.0036	-0.0020	-0.0022	-0.0000	-0.0000	-0.0022	-0.0005	-0.0013	-0.0006	-0.0007	-0.0012
312.0000	-0.0040	-0.0026	-0.0010	-0.0060	-0.0017	0.0037	-0.0021	-0.0023	-0.0000	-0.0000	-0.0023	-0.0006	-0.0013	-0.0006	-0.0007	-0.0013
320.0000	-0.0040	-0.0027	-0.0009	-0.0064	-0.0017	0.0037	-0.0022	-0.0024	-0.0000	-0.0000	-0.0024	-0.0007	-0.0014	-0.0007	-0.0008	-0.0013
328.0000	-0.0042	-0.0028	-0.0010	-0.0068	-0.0018	0.0038	-0.0023	-0.0026	-0.0000	-0.0000	-0.0025	-0.0009	-0.0014	-0.0007	-0.0008	-0.0014
336.0000	-0.0043	-0.0029	-0.0010	-0.0073	-0.0019	0.0038	-0.0024	-0.0027	-0.0000	-0.0000	-0.0026	-0.0010	-0.0015	-0.0008	-0.0008	-0.0015
344.0000	-0.0044	-0.0030	-0.0010	-0.0077	-0.0020	0.0039	-0.0025	-0.0028	-0.0000	-0.0000	-0.0028	-0.0012	-0.0015	-0.0008	-0.0009	-0.0016
352.0000	-0.0045	-0.0032	-0.0010	-0.0082	-0.0020	0.0039	-0.0025	-0.0029	-0.0000	-0.0000	-0.0029	-0.0014	-0.0016	-0.0009	-0.0009	-0.0016
360.0000	-0.0046	-0.0033	-0.0011	-0.0085	-0.0021	0.0039	-0.0025	-0.0030	-0.0000	-0.0000	-0.0030	-0.0014	-0.0016	-0.0009	-0.0009	-0.0017
368.0000	-0.0046	-0.0034	-0.0011	-0.0088	-0.0021	0.0040	-0.0026	-0.0030	-0.0000	-0.0000	-0.0031	-0.0014	-0.0016	-0.0010	-0.0009	-0.0017
376.0000	-0.0045	-0.0036	-0.0011	-0.0089	-0.0020	0.0041	-0.0026	-0.0030	-0.0000	-0.0000	-0.0031	-0.0014	-0.0016	-0.0010	-0.0009	-0.0018
384.0000	-0.0044	-0.0037	-0.0011	-0.0091	-0.0020	0.0041	-0.0025	-0.0030	-0.0000	-0.0000	-0.0031	-0.0014	-0.0015	-0.0011	-0.0009	-0.0017
392.0000	-0.0046	-0.0038	-0.0012	-0.0094	-0.0021	0.0041	-0.0026	-0.0031	-0.0000	-0.0000	-0.0032	-0.0013	-0.0015	-0.0011	-0.0009	-0.0018
400.0000	-0.0049	-0.0040	-0.0013	-0.0099	-0.0022	0.0042	-0.0028	-0.0032	-0.0000	-0.0000	-0.0034	-0.0015	-0.0016	-0.0012	-0.0010	-0.0018
408.0000	-0.0052	-0.0042	-0.0014	-0.0106	-0.0024	0.0043	-0.0029	-0.0034	-0.0000	-0.0000	-0.0036	-0.0019	-0.0017	-0.0012	-0.0010	-0.0020
416.0000	-0.0055	-0.0043	-0.0015	-0.0112	-0.0025	0.0042	-0.0029	-0.0035	-0.0000	0.0000	-0.0039	-0.0022	-0.0018	-0.0013	-0.0011	-0.0021
424.0000	-0.0057	-0.0044	-0.0016	-0.0116	-0.0025	0.0043	-0.0030	-0.0035	-0.0000	0.0000	-0.0041	-0.0022	-0.0019	-0.0013	-0.0011	-0.0022
432.0000	-0.0059	-0.0046	-0.0017	-0.0120	-0.0025	0.0045	-0.0031	-0.0036	-0.0000	0.0000	-0.0042	-0.0024	-0.0019	-0.0014	-0.0012	-0.0023
440.0000	-0.0061	-0.0048	-0.0017	-0.0125	-0.0026	0.0044	-0.0031	-0.0037	-0.0000	0.0000	-0.0044	-0.0027	-0.0020	-0.0015	-0.0012	-0.0024
448.0000	-0.0064	-0.0049	-0.0018	-0.0130	-0.0027	0.0044	-0.0032	-0.0037	-0.0000	0.0000	-0.0046	-0.0027	-0.0021	-0.0015	-0.0012	-0.0025
456.0000	-0.0065	-0.0051	-0.0019	-0.0133	-0.0027	0.0046	-0.0033	-0.0037	-0.0000	0.0000	-0.0047	-0.0028	-0.0021	-0.0016	-0.0012	-0.0026
464.0000	-0.0067	-0.0053	-0.0019	-0.0137	-0.0027	0.0047	-0.0032	-0.0037	-0.0000	0.0000	-0.0049	-0.0031	-0.0022	-0.0017	-0.0013	-0.0026
472.0000	-0.0069	-0.0054	-0.0019	-0.0141	-0.0028	0.0045	-0.0033	-0.0037	-0.0000	0.0000	-0.0051	-0.0032	-0.0022	-0.0017	-0.0013	-0.0027
480.0000	-0.0068	-0.0056	-0.0019	-0.0143	-0.0027	0.0046	-0.0033	-0.0037	-0.0000	0.0000	-0.0053	-0.0032	-0.0023	-0.0018	-0.0013	-0.0028
488.0000	-0.0063	-0.0058	-0.0016	-0.0139	-0.0024	0.0049	-0.0031	-0.0033	-0.0000	0.0000	-0.0054	-0.0032	-0.0022	-0.0019	-0.0012	-0.0028
496.0000	-0.0055	-0.0059	-0.0013	-0.0131	-0.0021	0.0047	-0.0027	-0.0029	-0.0000	0.0000	-0.0051	-0.0027	-0.0018	-0.0020	-0.0011	-0.0025
504.0000	-0.0054	-0.0061	-0.0012	-0.0129	-0.0019	0.0044	-0.0027	-0.0028	-0.0000	0.0000	-0.0050	-0.0019	-0.0016	-0.0020	-0.0010	-0.0024
512.0000	-0.0061	-0.0063	-0.0013	-0.0137	-0.0022	0.0050	-0.0029	-0.0030	-0.0000	0.0000	-0.0052	-0.0022	-0.0016	-0.0021	-0.0010	-0.0025
520.0000	-0.0068	-0.0065	-0.0013	-0.0147	-0.0024	0.0054	-0.0031	-0.0034	-0.0000	0.0000	-0.0059	-0.0035	-0.0020	-0.0022	-0.0011	-0.0028
528.0000	-0.0072	-0.0066	-0.0012	-0.0152	-0.0025	0.0029	-0.0031	-0.0035	-0.0000	0.0000	-0.0064	-0.0038	-0.0022	-0.0023	-0.0012	-0.0030
536.0000	-0.0077	-0.0068	-0.0012	-0.0159	-0.0026	-0.0029	-0.0033	-0.0036	-0.0000	0.0000	-0.0066	-0.0037	-0.0022	-0.0023	-0.0013	-0.0032
544.0000	-0.0084	-0.0070	-0.0014	-0.0167	-0.0027	-0.0098	-0.0034	-0.0039	-0.0000	0.0000	-0.0069	-0.0065	-0.0024	-0.0024	-0.0013	-0.0034
552.0000	-0.0082	-0.0072	-0.0014	-0.0162	-0.0025	-0.0149	-0.0032	-0.0037	-0.0000	0.0000	-0.0070	-0.0120	-0.0025	-0.0025	-0.0014	-0.0035
560.0000	-0.0064	-0.0074	-0.0008	-0.0139	-0.0017	-0.0165	-0.0026	-0.0027	-0.0000	0.0000	-0.0062	-0.0150	-0.0020	-0.0026	-0.0012	-0.0032
568.0000	-0.0043	-0.0076	-0.0002	-0.0111	-0.0007	-0.0156	-0.0019	-0.0016	-0.0000	0.0000	-0.0045	-0.0130	-0.0011	-0.0027	-0.0008	-0.0024
576.0000	-0.0034	-0.0078	0.0001	-0.0098	-0.0003	-0.0153	-0.0015	-0.0011	-0.0000	0.0000	-0.0032	-0.0103	-0.0004	-0.0027	-0.0005	-0.0019
584.0000	-0.0038	-0.0080	0.0000	-0.0099	-0.0005	-0.0176	-0.0016	-0.0013	-0.0000	0.0000	-0.0029	-0.0105	-0.0003	-0.0029	-0.0005	-0.0018
592.0000	-0.0041	-0.0082	-0.0001	-0.0101	-0.0006	-0.0209	-0.0018	-0.0015	0.0000	0.0000	-0.0031	-0.0117	-0.0004	-0.0029	-0.0006	-0.0020
600.0000	-0.0042	-0.0084	-0.0001	-0.0100	-0.0006	-0.0218	-0.0019	-0.0015	0.0000	0.0000	-0.0031	-0.0118	-0.0004	-0.0030	-0.0006	-0.0021
608.0000	-0.0045	-0.0086	-0.0001	-0.0102	-0.0006	-0.0205	-0.0018	-0.0016	0.0000	0.0000	-0.0030	-0.0118	-0.0005	-0.0031	-0.0006	-0.0022
616.0000	-0.0049	-0.0087	-0.0003	-0.0108	-0.0008	-0.0197	-0.0020	-0.0019	0.0000	0.0000	-0.0031	-0.0127	-0.0006	-0.0032	-0.0007	-0.0023
624.0000	-0.0050	-0.0090	-0.0004	-0.0111	-0.0008	-0.0199	-0.0022	-0.0019	0.0000	0.0000	-0.0033	-0.0135	-0.0007	-0.0033	-0.0007	-0.0024
632.0000	-0.0050	-0.0092	-0.0004	-0.0112	-0.0008	-0.0198	-0.0021	-0.0020	0.0000	0.0000	-0.0033	-0.0136	-0.0007	-0.0034	-0.0008	-0.0025
640.0000	-0.0052	-0.0094	-0.0005	-0.0115	-0.0009	-0.0198	-0.0021	-0.0020	0.0000	0.0000	-0.0033	-0.0139	-0.0007	-0.0035	-0.0008	-0.0025
648.0000	-0.0054	-0.0096	-0.0006	-0.0118	-0.0010	-0.0208	-0.0023	-0.0021	0.0000	0.0000	-0.0034	-0.0146	-0.0008	-0.0036	-0.0008	-0.0026
656.0000	-0.0054	-0.0099	-0.0006	-0.0120	-0.0009	-0.0217	-0.0024	-0.0021	0.0000	0.0000	-0.0035	-0.0148	-0.0008	-0.0036	-0.0009	-0.0026
664.0000	-0.0054	-0.0100	-0.0006	-0.0121	-0.0010	-0.0217	-0.0022	-0.0021	0.0000	0.0000	-0.0034	-0.0147	-0.0008	-0.0038	-0.0009	-0.0026
672.0000	-0.0057	-0.0102	-0.0006	-0.0126	-0.0011	-0.0215	-0.0024	-0.0023	0.0000	0.0000	-0.0035	-0.0151	-0.0008	-0.0039	-0.0009	-0.0027
680.0000	-0.0060	-0.0105	-0.0007	-0.0130	-0.0012	-0.0216	-0.0029	-0.0023	0.0000	0.0000	-0.0037	-0.0155	-0.0009	-0.0040	-0.0010	-0.0028
688.0000	-0.0061	-0.0107	-0.0007	-0.0132	-0.0011	-0.0210	-0.0026	-0.0023	0.0000	0.0000	-0.0038	-0.0156	-0.0010	-0.0041	-0.0010	-0.0028
696.0000	-0.0065	-0.0108	-0.0006	-0.0136	-0.0013	-0.0198	-0.0025	-0.0025	0.0000	0.0000	-0.0039	-0.0158	-0.0010	-0.0042	-0.0011	-0.0028
704.0000	-0.0070	-0.0111	-0.0007	-0.0142	-0.0014	-0.0193	-0.0033	-0.0028	0.0000	0.0000	-0.0041	-0.0164	-0.0011	-0.0043	-0.0012	-0.0029
712.0000	-0.0065	-0.0115	-0.0006	-0.0136	-0.0010	-0.0176	-0.0030	-0.0025	0.0000	0.0000	-0.0042	-0.0165	-0.0011	-0.0044	-0.0012	-0.0029
720.0000	-0.0043	-0.0104	0.0003	-0.0106	0.0001	-0.0113	0.0006	-0.0012	0.0000	0.0000	-0.0033	-0.0142	-0.0009	-0.0045	-0.0009	-0.0023
728.0000	-0.0011	-0.0071	0.0015	-0.0059	0.0017	-0.0022	0.0054	0.0007	0.0000	0.0000	-0.0013	-0.0093	-0.0004	-0.0047	-0.0003	-0.0011
736.0000	0.0013	-0.0035	0.0024	-0.0018	0.0030	0.0041	0.0075	0.0021	0.0000	0.0000	0.0010	-0.0040	0.0005	-0.0047	0.0003	0.0002
744.0000	0.0023	-0.0019	0.0028	0.0005	0.0036	0.0054	0.0069	0.0027	0.0000	0.0000	0.0023	-0.0008	0.0012	-0.0048	0.0007	0.0009
752.0000	0.0024	-0.0015	0.0027	0.0016	0.0037	0.0046	0.0063	0.0029	0.0000	0.0000	0.0028	0.0002	0.0015	-0.0050	0.0008	0.0012
760.0000	0.0027	-0.0011	0.0027	0.0027	0.0038	0.0046	0.0066	0.0031	0.0000	0.0000	0.0031	0.0006	0.0018	-0.0051	0.0009	0.0013
768.0000	0.0030	-0.0004	0.0028	0.0038	0.0040	0.0049	0.0066	0.0034	0.0000	0.0000	0.0034	0.0014	0.0022	-0.0049	0.0010	0.0014
776.0000	0.0032	0.0002	0.0029	0.0048	0.0041	0.0048	0.0062	0.0035	0.0000	0.0000	0.0036	0.0021	0.0027	-0.0044	0.0011	0.0015
784.0000	0.0032	0.0005	0.0029	0.0055	0.0042	0.0046	0.0061	0.0036	0.0000	0.0000	0.0038	0.0025	0.0033	-0.0040	0.0011	0.0016
792.0000	0.0030	0.0006	0.0030	0.0057	0.0041	0.0048	0.0063	0.0035	0.0000	0.0000	0.0038	0.0026	0.0040	-0.0040	0.0011	0.0016
800.0000	0.0026	0.0004	0.0029	0.0056	0.0040	0.0048	0.0061	0.0033	0.0000	0.0000	0.0037	0.0025	0.0043	-0.0042	0.0011	0.0015
808.0000	0.0023	0.0003	0.0029	0.0055	0.0039	0.0047	0.0058	0.0032	0.0000	0.0000	0.0035	0.0021	0.0042	-0.0045	0.0010	0.0014
816.0000	0.0021	0.0003	0.0029	0.0054	0.0038	0.0047	0.0059	0.0032	0.0000	0.0000	0.0034	0.0018	0.0041	-0.0045	0.0010	0.0014
824.0000	0.0017	0.0000	0.0029	0.0051	0.0038	0.0049	0.0059	0.0030	0.0000	0.0000	0.0032	0.0016	0.0041	-0.0047	0.0009	0.0013
832.0000	0.0012	-0.0004	0.0028	0.0045	0.0036	0.0048	0.0057	0.0029	0.0000	0.0000	0.0029	0.0011	0.0038	-0.0051	0.0008	0.0012
840.0000	0.0010	-0.0005	0.0029	0.0044	0.0036	0.0048	0.0056	0.0030	0.0000	0.0000	0.0026	0.0007	0.0034	-0.0052	0.0008	0.0011
848.0000	0.0008	-0.0005	0.0029	0.0043	0.0036	0.0048	0.0057	0.0030	0.0000	0.0000	0.0026	0.0007	0.0031	-0.0050	0.0008	0.0011
856.0000	0.0001	-0.0011	0.0028	0.0036	0.0033	0.0049	0.0056	0.0027	0.0000	0.0000	0.0023	0.0004	0.0029	-0.0053	0.0007	0.0009
864.0000	-0.0001	-0.0012	0.0029	0.0034	0.0033	0.0048	0.0054	0.0027	0.0000	0.0000	0.0018	-0.0005	0.0028	-0.0059	0.0006	0.0007
872.0000	0.0014	0.0009	0.0036	0.0055	0.0041	0.0047	0.0053	0.0037	0.0000	0.0001	0.0022	0.0005	0.0033	-0.0049	0.0008	0.0009
880.0000	0.0039	0.0045	0.0047	0.0091	0.0054	0.0046	0.0051	0.0052	0.0000	0.0001	0.0039	0.0042	0.0046	-0.0019	0.0012	0.0018
888.0000	0.0054	0.0068	0.0054	0.0117	0.0062	0.0044	0.0049	0.0062	0.0000	0.0001	0.0055	0.0081	0.0056	0.0012	0.0017	0.0028
896.0000	0.0055	0.0074	0.0055	0.0123	0.0062	0.0044	0.0047	0.0063	0.0000	0.0001	0.0062	0.0096	0.0055	0.0025	0.0018	0.0031
904.0000	0.0054	0.0077	0.0055	0.0125	0.0062	0.0044	0.0048	0.0063	0.0000	0.0001	0.0061	0.0096	0.0049	0.0025	0.0018	0.0031
912.0000	0.0055	0.0083	0.0056	0.0130	0.0064	0.0044	0.0047	0.0064	0.0000	0.0001	0.0062	0.0099	0.0047	0.0027	0.0019	0.0032
920.0000	0.0055	0.0087	0.0057	0.0133	0.0064	0.0043	0.0045	0.0064	0.0000	0.0001	0.0063	0.0103	0.0047	0.0031	0.0019	0.0033
928.0000	0.0052	0.0088	0.0056	0.0133	0.0063	0.0043	0.0045	0.0063	0.0000	0.0001	0.0061	0.0102	0.0046	0.0031	0.0019	0.0033
936.0000	0.0051	0.0090	0.0057	0.0134	0.0064	0.0044	0.0045	0.0064	0.0000	0.0001	0.0060	0.0101	0.0045	0.0030	0.0019	0.0032
944.0000	0.0051	0.0092	0.0057	0.0137	0.0065	0.0043	0.0043	0.0064	0.0000	0.0001	0.0060	0.0102	0.0046	0.0032	0.0019	0.0032
952.0000	0.0049	0.0092	0.0057	0.0137	0.0063	0.0043	0.0043	0.0063	0.0000	0.0001	0.0060	0.0102	0.0046	0.0033	0.0019	0.0032
960.0000	0.0047	0.0091	0.0056	0.0137	0.0063	0.0043	0.0043	0.0062	0.0000	0.0001	0.0058	0.0100	0.0045	0.0032	0.0018	0.0032
968.0000	0.0046	0.0091	0.0056	0.0138	0.0064	0.0043	0.0042	0.0062	0.0000	0.0001	0.0057	0.0100	0.0045	0.0032	0.0018	0.0032
976.0000	0.0044	0.0089	0.0055	0.0138	0.0064	0.0042	0.0041	0.0061	0.0001	0.0001	0.0057	0.0100	0.0046	0.0034	0.0018	0.0032
984.0000	0.0041	0.0086	0.0053	0.0136	0.0062	0.0042	0.0040	0.0059	0.0001	0.0001	0.0054	0.0096	0.0045	0.0032	0.0018	0.0031
992.0000	0.0038	0.0083	0.0052	0.0134	0.0062	0.0042	0.0040	0.0059	0.0001	0.0001	0.0052	0.0093	0.0044	0.0031	0.0017	0.0030
1000.0000	0.0037	0.0082	0.0052	0.0135	0.0063	0.0042	0.0039	0.0059	0.0001	0.0001	0.0051	0.0093	0.0044	0.0031	0.0017	0.0030
1008.0000	0.0036	0.0081	0.0052	0.0134	0.0061	0.0042	0.0038	0.0059	0.0001	0.0001	0.0051	0.0092	0.0045	0.0032	0.0017	0.0030
1016.0000	0.0035	0.0079	0.0052	0.0133	0.0061	0.0042	0.0038	0.0059	0.0001	0.0001	0.0049	0.0090	0.0044	0.0032	0.0017	0.0030
1024.0000	0.0034	0.0078	0.0052	0.0133	0.0062	0.0042	0.0038	0.0058	0.0001	0.0001	0.0049	0.0090	0.0045	0.0033	0.0017	0.0029
1032.0000	0.0032	0.0077	0.0052	0.0132	0.0061	0.0041	0.0037	0.0058	0.0001	0.0001	0.0049	0.0091	0.0045	0.0034	0.0017	0.0029
1040.0000	0.0030	0.0075	0.0052	0.0131	0.0060	0.0041	0.0036	0.0057	0.0001	0.0001	0.0047	0.0089	0.0045	0.0034	0.0016	0.0029
1048.0000	0.0028	0.0074	0.0051	0.0130	0.0061	0.0041	0.0036	0.0057	0.0001	0.0001	0.0046	0.0087	0.0045	0.0033	0.0015	0.0028
1056.0000	0.0027	0.0073	0.0051	0.0129	0.0061	0.0040	0.0035	0.0056	0.0001	0.0001	0.0046	0.0086	0.0046	0.0033	0.0015	0.0028
1064.0000	0.0025	0.0072	0.0051	0.0127	0.0059	0.0040	0.0034	0.0056	0.0001	0.0001	0.0045	0.0085	0.0046	0.0033	0.0015	0.0027
1072.0000	0.0023	0.0070	0.0050	0.0125	0.0058	0.0039	0.0034	0.0055	0.0001	0.0001	0.0043	0.0082	0.0046	0.0032	0.0014	0.0026
1080.0000	0.0021	0.0070	0.0050	0.0124	0.0059	0.0039	0.0034	0.0054	0.0001	0.0001	0.0042	0.0080	0.0046	0.0031	0.0014	0.0026
1088.0000	0.0019	0.0068	0.0049	0.0122	0.0057	0.0039	0.0032	0.0054	0.0001	0.0001	0.0040	0.0080	0.0046	0.0032	0.0014	0.0025
1096.0000	0.0017	0.0067	0.0049	0.0120	0.0055	0.0038	0.0032	0.0053	0.0001	0.0001	0.0038	0.0076	0.0046	0.0031	0.0013	0.0024
1104.0000	0.0015	0.0067	0.0049	0.0118	0.0055	0.0038	0.0032	0.0053	0.0001	0.0001	0.0035	0.0073	0.0045	0.0029	0.0013	0.0023
1112.0000	0.0013	0.0066	0.0048	0.0116	0.0054	0.0037	0.0031	0.0052	0.0001	0.0001	0.0033	0.0072	0.0045	0.0030	0.0013	0.0023
1120.0000	0.0011	0.0064	0.0046	0.0114	0.0051	0.0037	0.0030	0.0050	0.0001	0.0001	0.0031	0.0072	0.0045	0.0031	0.0013	0.0023
1128.0000	0.0010	0.0064	0.0045	0.0112	0.0049	0.0036	0.0029	0.0049	0.0001	0.0001	0.0028	0.0069	0.0045	0.0030	0.0013	0.0022
1136.0000	0.0011	0.0064	0.0044	0.0111	0.0050	0.0036	0.0029	0.0049	0.0001	0.0001	0.0025	0.0063	0.0043	0.0028	0.0013	0.0021
1144.0000	0.0010	0.0063	0.0043	0.0108	0.0048	0.0035	0.0028	0.0048	0.0001	0.0001	0.0023	0.0060	0.0041	0.0027	0.0013	0.0020
1152.0000	0.0008	0.0062	0.0041	0.0104	0.0045	0.0034	0.0027	0.0047	0.0001	0.0001	0.0021	0.0057	0.0041	0.0027	0.0013	0.0019
1160.0000	0.0007	0.0060	0.0040	0.0101	0.0044	0.0034	0.0026	0.0046	0.0001	0.0001	0.0019	0.0054	0.0039	0.0027	0.0013	0.0019
1168.0000	0.0007	0.0059	0.0039	0.0099	0.0044	0.0033	0.0025	0.0046	0.0001	0.0001	0.0017	0.0050	0.0038	0.0026	0.0013	0.0018
1176.0000	0.0006	0.0057	0.0038	0.0095	0.0040	0.0032	0.0024	0.0045	0.0001	0.0001	0.0016	0.0047	0.0037	0.0026	0.0013	0.0017
1184.0000	0.0005	0.0054	0.0035	0.0091	0.0037	0.0031	0.0024	0.0045	0.0001	0.0002	0.0014	0.0044	0.0038	0.0026	0.0013	0.0017
1192.0000	0.0005	0.0052	0.0032	0.0088	0.0037	0.0031	0.0024	0.0044	0.0002	0.0002	0.0013	0.0041	0.0040	0.0025	0.0013	0.0016
1200.0000	0.0005	0.0050	0.0031	0.0085	0.0034	0.0030	0.0022	0.0044	0.0002	0.0002	0.0011	0.0039	0.0040	0.0024	0.0014	0.0015
1208.0000	0.0004	0.0047	0.0029	0.0081	0.0030	0.0029	0.0021	0.0043	0.0002	0.0002	0.0010	0.0037	0.0041	0.0024	0.0014	0.0014
1216.0000	0.0004	0.0045	0.0027	0.0077	0.0028	0.0028	0.0021	0.0042	0.0002	0.0002	0.0009	0.0035	0.0041	0.0024	0.0014	0.0012
1224.0000	0.0004	0.0044	0.0026	0.0075	0.0026	0.0028	0.0020	0.0041	0.0002	0.0002	0.0008	0.0034	0.0041	0.0023	0.0014	0.0011
1232.0000	0.0003	0.0043	0.0025	0.0070	0.0021	0.0026	0.0018	0.0041	0.0002	0.0002	0.0007	0.0033	0.0041	0.0023	0.0014	0.0011
1240.0000	0.0003	0.0042	0.0024	0.0066	0.0017	0.0025	0.0017	0.0040	0.0002	0.0002	0.0007	0.0031	0.0041	0.0022	0.0014	0.0010
1248.0000	0.0004	0.0042	0.0023	0.0063	0.0014	0.0024	0.0017	0.0040	0.0002	0.0002	0.0007	0.0030	0.0041	0.0021	0.0014	0.0009
1256.0000	0.0004	0.0042	0.0023	0.0060	0.0010	0.0023	0.0015	0.0040	0.0002	0.0002	0.0006	0.0030	0.0041	0.0021	0.0014	0.0008
1264.0000	0.0003	0.0041	0.0022	0.0055	0.0005	0.0021	0.0013	0.0039	0.0002	0.0002	0.0006	0.0028	0.0040	0.0020	0.0015	0.0008
1272.0000	0.0002	0.0040	0.0020	0.0052	0.0003	0.0020	0.0013	0.0038	0.0002	0.0002	0.0005	0.0027	0.0038	0.0020	0.0015	0.0008
1280.0000	0.0002	0.0039	0.0017	0.0049	0.0001	0.0019	0.0012	0.0037	0.0002	0.0002	0.0004	0.0026	0.0037	0.0020	0.0015	0.0007
1288.0000	0.0001	0.0038	0.0015	0.0045	-0.0005	0.0017	0.0010	0.0036	0.0002	0.0002	0.0003	0.0025	0.0035	0.0020	0.0015	0.0007
1296.0000	0.0000	0.0037	0.0013	0.0040	-0.0009	0.0016	0.0008	0.0035	0.0002	0.0002	0.0002	0.0025	0.0034	0.0019	0.0015	0.0006
1304.0000	0.0001	0.0037	0.0011	0.0037	-0.0009	0.0015	0.0008	0.0035	0.0002	0.0002	0.0001	0.0024	0.0033	0.0018	0.0015	0.0006
1312.0000	0.0003	0.0038	0.0011	0.0034	-0.0012	0.0014	0.0006	0.0034	0.0002	0.0002	0.0001	0.0025	0.0031	0.0016	0.0015	0.0006
1320.0000	0.0004	0.0038	0.0011	0.0029	-0.0017	0.0011	0.0004	0.0032	0.0002	0.0002	0.0001	0.0025	0.0029	0.0015	0.0015	0.0006
1328.0000	0.0006	0.0038	0.0010	0.0024	-0.0018	0.0010	0.0003	0.0031	0.0002	0.0002	0.0001	0.0027	0.0027	0.0015	0.0014	0.0005
1336.0000	0.0009	0.0038	0.0010	0.0020	-0.0019	0.0009	0.0002	0.0029	0.0002	0.0002	0.0001	0.0029	0.0025	0.0015	0.0014	0.0005
1344.0000	0.0012	0.0039	0.0010	0.0014	-0.0023	0.0006	-0.0001	0.0028	0.0002	0.0002	0.0002	0.0030	0.0023	0.0015	0.0014	0.0005
1352.0000	0.0016	0.0039	0.0010	0.0007	-0.0027	0.0004	-0.0003	0.0026	0.0002	0.0002	0.0003	0.0029	0.0021	0.0015	0.0014	0.0005
1360.0000	0.0018	0.0038	0.0008	0.0002	-0.0026	0.0003	-0.0004	0.0025	0.0002	0.0002	0.0004	0.0030	0.0019	0.0015	0.0014	0.0004
1368.0000	0.0019	0.0038	0.0006	-0.0002	-0.0029	0.0001	-0.0006	0.0024	0.0002	0.0002	0.0005	0.0033	0.0016	0.0014	0.0013	0.0004
1376.0000	0.0018	0.0038	0.0005	-0.0006	-0.0035	-0.0002	-0.0008	0.0023	0.0002	0.0002	0.0006	0.0035	0.0013	0.0013	0.0013	0.0004
1384.0000	0.0016	0.0037	-0.0000	-0.0010	-0.0037	-0.0003	-0.0010	0.0023	0.0002	0.0002	0.0008	0.0036	0.0010	0.0012	0.0013	0.0004
1392.0000	0.0016	0.0036	-0.0007	-0.0013	-0.0038	-0.0005	-0.0011	0.0022	0.0002	0.0002	0.0010	0.0036	0.0007	0.0011	0.0013	0.0003
1400.0000	0.0014	0.0035	-0.0011	-0.0019	-0.0044	-0.0008	-0.0014	0.0020	0.0002	0.0001	0.0012	0.0034	0.0004	0.0011	0.0013	0.0003
1408.0000	0.0012	0.0036	-0.0010	-0.0024	-0.0050	-0.0011	-0.0017	0.0018	0.0003	0.0002	0.0012	0.0032	0.0001	0.0010	0.0013	0.0002
1416.0000	0.0009	0.0038	-0.0009	-0.0029	-0.0051	-0.0012	-0.0018	0.0016	0.0003	0.0002	0.0012	0.0030	-0.0000	0.0010	0.0013	0.0002
1424.0000	0.0008	0.0040	-0.0010	-0.0034	-0.0056	-0.0015	-0.0021	0.0014	0.0003	0.0001	0.0011	0.0029	-0.0002	0.0010	0.0014	0.0002
1432.0000	0.0008	0.0044	-0.0013	-0.0041	-0.0064	-0.0018	-0.0024	0.0012	0.0003	0.0001	0.0010	0.0027	-0.0003	0.0009	0.0014	0.0001
1440.0000	0.0008	0.0048	-0.0016	-0.0047	-0.0068	-0.0020	-0.0026	0.0009	0.0003	0.0001	0.0009	0.0024	-0.0004	0.0007	0.0015	0.0001
1448.0000	0.0009	0.0054	-0.0022	-0.0052	-0.0070	-0.0022	-0.0028	0.0007	0.0002	0.0001	0.0008	0.0021	-0.0005	0.0006	0.0016	0.0000
1456.0000	0.0010	0.0060	-0.0029	-0.0059	-0.0078	-0.0026	-0.0031	0.0005	0.0002	0.0001	0.0008	0.0020	-0.0005	0.0005	0.0016	0.0000
1464.0000	0.0012	0.0065	-0.0034	-0.0066	-0.0085	-0.0029	-0.0034	0.0003	0.0002	0.0001	0.0009	0.0019	-0.0005	0.0005	0.0017	0.0001
1472.0000	0.0013	0.0070	-0.0036	-0.0072	-0.0087	-0.0031	-0.0036	0.0001	0.0002	0.0001	0.0009	0.0018	-0.0007	0.0004	0.0017	0.0001
1480.0000	0.0015	0.0074	-0.0037	-0.0079	-0.0092	-0.0034	-0.0039	-0.0001	0.0002	0.0001	0.0009	0.0018	-0.0009	0.0003	0.0017	0.0001
1488.0000	0.0016	0.0077	-0.0041	-0.0087	-0.0102	-0.0038	-0.0043	-0.0003	0.0002	0.0001	0.0009	0.0018	-0.0011	0.0003	0.0017	0.0001
1496.0000	0.0017	0.0080	-0.0045	-0.0094	-0.0107	-0.0041	-0.0046	-0.0005	0.0002	0.0001	0.0010	0.0018	-0.0013	0.0002	0.0017	0.0001
1504.0000	0.0018	0.0083	-0.0048	-0.0101	-0.0110	-0.0043	-0.0048	-0.0007	0.0002	0.0001	0.0010	0.0018	-0.0016	0.0001	0.0016	0.0001
1512.0000	0.0018	0.0084	-0.0051	-0.0109	-0.0119	-0.0047	-0.0052	-0.0010	0.0002	0.0001	0.0009	0.0017	-0.0019	0.0001	0.0016	0.0001
1520.0000	0.0018	0.0086	-0.0055	-0.0117	-0.0128	-0.0051	-0.0056	-0.0013	0.0002	0.0001	0.0008	0.0017	-0.0023	0.0000	0.0016	0.0001
1528.0000	0.0018	0.0087	-0.0060	-0.0122	-0.0130	-0.0054	-0.0058	-0.0016	0.0002	0.0000	0.0008	0.0016	-0.0028	-0.0000	0.0016	0.0002
1536.0000	0.0018	0.0087	-0.0066	-0.0125	-0.0135	-0.0057	-0.0061	-0.0018	0.0002	0.0000	0.0008	0.0017	-0.0033	-0.0000	0.0015	0.0002
1544.0000	0.0018	0.0087	-0.0072	-0.0130	-0.0145	-0.0062	-0.0066	-0.0021	0.0002	0.0000	0.0008	0.0017	-0.0039	-0.0001	0.0015	0.0002
1552.0000	0.0017	0.0088	-0.0080	-0.0133	-0.0150	-0.0066	-0.0069	-0.0025	0.0002	0.0000	0.0008	0.0017	-0.0044	-0.0001	0.0015	0.0002
1560.0000	0.0018	0.0091	-0.0086	-0.0136	-0.0152	-0.0068	-0.0072	-0.0028	0.0002	-0.0000	0.0008	0.0018	-0.0048	-0.0001	0.0014	0.0002
1568.0000	0.0019	0.0096	-0.0092	-0.0139	-0.0161	-0.0073	-0.0077	-0.0031	0.0002	-0.0000	0.0007	0.0018	-0.0052	-0.0001	0.0013	0.0003
1576.0000	0.0020	0.0100	-0.0097	-0.0142	-0.0170	-0.0078	-0.0081	-0.0035	0.0002	-0.0000	0.0007	0.0018	-0.0056	-0.0001	0.0013	0.0003
1584.0000	0.0022	0.0105	-0.0103	-0.0142	-0.0172	-0.0081	-0.0084	-0.0039	0.0001	-0.0001	0.0007	0.0019	-0.0060	-0.0002	0.0012	0.0004
1592.0000	0.0025	0.0109	-0.0107	-0.0142	-0.0177	-0.0085	-0.0088	-0.0042	0.0001	-0.0001	0.0007	0.0020	-0.0065	-0.0002	0.0012	0.0005
1600.0000	0.0028	0.0112	-0.0110	-0.0144	-0.0189	-0.0090	-0.0093	-0.0046	0.0001	-0.0001	0.0008	0.0020	-0.0071	-0.0001	0.0011	0.0005
1608.0000	0.0030	0.0114	-0.0113	-0.0145	-0.0193	-0.0094	-0.0097	-0.0050	0.0001	-0.0001	0.0008	0.0020	-0.0077	-0.0002	0.0011	0.0005
1616.0000	0.0033	0.0116	-0.0117	-0.0145	-0.0193	-0.0098	-0.0100	-0.0054	0.0001	-0.0001	0.0008	0.0021	-0.0085	-0.0002	0.0010	0.0006
1624.0000	0.0037	0.0116	-0.0121	-0.0147	-0.0200	-0.0103	-0.0106	-0.0059	0.0001	-0.0002	0.0009	0.0021	-0.0091	-0.0001	0.0010	0.0007
1632.0000	0.0039	0.0116	-0.0126	-0.0150	-0.0208	-0.0109	-0.0111	-0.0063	0.0001	-0.0002	0.0010	0.0021	-0.0098	-0.0001	0.0009	0.0007
1640.0000	0.0041	0.0113	-0.0132	-0.0152	-0.0205	-0.0112	-0.0114	-0.0068	0.0000	-0.0002	0.0011	0.0022	-0.0105	-0.0001	0.0009	0.0008
1648.0000	0.0043	0.0110	-0.0139	-0.0156	-0.0206	-0.0116	-0.0118	-0.0072	0.0000	-0.0002	0.0012	0.0022	-0.0112	-0.0001	0.0008	0.0009
1656.0000	0.0045	0.0106	-0.0144	-0.0163	-0.0217	-0.0123	-0.0125	-0.0077	0.0000	-0.0003	0.0012	0.0023	-0.0120	-0.0001	0.0008	0.0010
1664.0000	0.0045	0.0101	-0.0151	-0.0169	-0.0223	-0.0127	-0.0129	-0.0082	-0.0000	-0.0003	0.0011	0.0024	-0.0128	-0.0001	0.0007	0.0010
1672.0000	0.0044	0.0096	-0.0158	-0.0174	-0.0222	-0.0131	-0.0133	-0.0087	-0.0000	-0.0003	0.0011	0.0024	-0.0136	-0.0000	0.0007	0.0011
1680.0000	0.0042	0.0089	-0.0166	-0.0181	-0.0230	-0.0137	-0.0139	-0.0093	-0.0001	-0.0003	0.0011	0.0023	-0.0144	0.0000	0.0006	0.0012
1688.0000	0.0039	0.0082	-0.0173	-0.0190	-0.0240	-0.0143	-0.0145	-0.0098	-0.0001	-0.0004	0.0012	0.0023	-0.0152	0.0001	0.0006	0.0013
1696.0000	0.0036	0.0074	-0.0181	-0.0197	-0.0242	-0.0147	-0.0149	-0.0103	-0.0001	-0.0004	0.0012	0.0022	-0.0160	0.0001	0.0005	0.0014
1704.0000	0.0032	0.0064	-0.0189	-0.0204	-0.0246	-0.0152	-0.0153	-0.0109	-0.0001	-0.0004	0.0013	0.0021	-0.0168	0.0002	0.0004	0.0015
1712.0000	0.0026	0.0054	-0.0197	-0.0215	-0.0258	-0.0159	-0.0161	-0.0114	-0.0002	-0.0005	0.0014	0.0021	-0.0177	0.0003	0.0004	0.0015
1720.0000	0.0020	0.0043	-0.0204	-0.0225	-0.0260	-0.0165	-0.0166	-0.0120	-0.0002	-0.0005	0.0014	0.0020	-0.0186	0.0004	0.0003	0.0016
1728.0000	0.0014	0.0032	-0.0213	-0.0233	-0.0258	-0.0168	-0.0169	-0.0126	-0.0002	-0.0005	0.0015	0.0021	-0.0195	0.0005	0.0002	0.0017
1736.0000	0.0006	0.0020	-0.0221	-0.0243	-0.0270	-0.0175	-0.0176	-0.0131	-0.0002	-0.0006	0.0016	0.0021	-0.0205	0.0006	0.0001	0.0018
1744.0000	-0.0002	0.0010	-0.0228	-0.0255	-0.0286	-0.0182	-0.0183	-0.0137	-0.0003	-0.0006	0.0017	0.0020	-0.0215	0.0007	0.0001	0.0019
1752.0000	-0.0010	0.0000	-0.0237	-0.0265	-0.0289	-0.0186	-0.0187	-0.0144	-0.0003	-0.0006	0.0017	0.0020	-0.0225	0.0007	-0.0000	0.0020
1760.0000	-0.0018	-0.0009	-0.0246	-0.0274	-0.0297	-0.0191	-0.0192	-0.0150	-0.0003	-0.0007	0.0017	0.0019	-0.0236	0.0008	-0.0001	0.0021
1768.0000	-0.0027	-0.0017	-0.0254	-0.0287	-0.0320	-0.0200	-0.0200	-0.0157	-0.0004	-0.0007	0.0018	0.0019	-0.0247	0.0009	-0.0002	0.0021
1776.0000	-0.0036	-0.0024	-0.0262	-0.0299	-0.0331	-0.0206	-0.0206	-0.0164	-0.0004	-0.0007	0.0018	0.0017	-0.0258	0.0009	-0.0003	0.0022
1784.0000	-0.0045	-0.0030	-0.0271	-0.0309	-0.0329	-0.0209	-0.0210	-0.0171	-0.0004	-0.0008	0.0017	0.0016	-0.0269	0.0010	-0.0005	0.0023
1792.0000	-0.0054	-0.0035	-0.0281	-0.0321	-0.0341	-0.0217	-0.0217	-0.0179	-0.0005	-0.0009	0.0017	0.0016	-0.0280	0.0010	-0.0007	0.0024
1800.0000	-0.0061	-0.0038	-0.0290	-0.0334	-0.0360	-0.0225	-0.0226	-0.0187	-0.0005	-0.0009	0.0017	0.0014	-0.0290	0.0010	-0.0007	0.0024
1808.0000	-0.0068	-0.0041	-0.0299	-0.0344	-0.0360	-0.0230	-0.0230	-0.0195	-0.0006	-0.0009	0.0018	0.0013	-0.0300	0.0010	-0.0009	0.0025
1816.0000	-0.0073	-0.0044	-0.0304	-0.0354	-0.0362	-0.0235	-0.0235	-0.0203	-0.0006	-0.0010	0.0018	0.0012	-0.0310	0.0011	-0.0015	0.0025
1824.0000	-0.0079	-0.0046	-0.0308	-0.0368	-0.0384	-0.0244	-0.0244	-0.0211	-0.0006	-0.0010	0.0018	0.0011	-0.0320	0.0013	-0.0024	0.0025
1832.0000	-0.0084	-0.0047	-0.0315	-0.0380	-0.0398	-0.0251	-0.0251	-0.0220	-0.0007	-0.0010	0.0018	0.0009	-0.0330	0.0013	-0.0030	0.0024
1840.0000	-0.0089	-0.0049	-0.0326	-0.0388	-0.0399	-0.0254	-0.0255	-0.0229	-0.0007	-0.0011	0.0019	0.0007	-0.0341	0.0015	-0.0033	0.0023
1848.0000	-0.0093	-0.0051	-0.0336	-0.0400	-0.0417	-0.0262	-0.0262	-0.0238	-0.0008	-0.0012	0.0019	0.0005	-0.0352	0.0016	-0.0036	0.0023
1856.0000	-0.0097	-0.0052	-0.0345	-0.0416	-0.0441	-0.0272	-0.0272	-0.0248	-0.0008	-0.0012	0.0019	0.0003	-0.0362	0.0017	-0.0039	0.0022
1864.0000	-0.0100	-0.0052	-0.0357	-0.0427	-0.0442	-0.0277	-0.0277	-0.0258	-0.0009	-0.0013	0.0020	0.0001	-0.0372	0.0018	-0.0040	0.0021
1872.0000	-0.0102	-0.0054	-0.0368	-0.0437	-0.0445	-0.0281	-0.0281	-0.0268	-0.0009	-0.0014	0.0020	0.0000	-0.0383	0.0019	-0.0042	0.0020
1880.0000	-0.0104	-0.0055	-0.0376	-0.0454	-0.0471	-0.0292	-0.0292	-0.0278	-0.0010	-0.0014	0.0021	-0.0001	-0.0394	0.0019	-0.0046	0.0020
1888.0000	-0.0106	-0.0056	-0.0385	-0.0468	-0.0486	-0.0300	-0.0300	-0.0290	-0.0010	-0.0014	0.0021	-0.0003	-0.0404	0.0019	-0.0049	0.0020
1896.0000	-0.0108	-0.0056	-0.0399	-0.0478	-0.0479	-0.0303	-0.0303	-0.0301	-0.0011	-0.0015	0.0022	-0.0004	-0.0415	0.0019	-0.0052	0.0020
1904.0000	-0.0109	-0.0057	-0.0411	-0.0492	-0.0495	-0.0311	-0.0311	-0.0311	-0.0012	-0.0016	0.0023	-0.0005	-0.0427	0.0019	-0.0053	0.0021
1912.0000	-0.0111	-0.0060	-0.0414	-0.0510	-0.0524	-0.0323	-0.0323	-0.0322	-0.0012	-0.0017	0.0023	-0.0007	-0.0438	0.0019	-0.0057	0.0021
1920.0000	-0.0114	-0.0062	-0.0415	-0.0520	-0.0522	-0.0327	-0.0327	-0.0334	-0.0013	-0.0017	0.0023	-0.0008	-0.0450	0.0019	-0.0063	0.0020
1928.0000	-0.0117	-0.0064	-0.0418	-0.0530	-0.0518	-0.0331	-0.0331	-0.0346	-0.0014	-0.0018	0.0023	-0.0009	-0.0462	0.0020	-0.0069	0.0021
1936.0000	-0.0120	-0.0064	-0.0422	-0.0549	-0.0549	-0.0344	-0.0344	-0.0356	-0.0014	-0.0019	0.0022	-0.0009	-0.0475	0.0021	-0.0074	0.0021
1944.0000	-0.0123	-0.0063	-0.0425	-0.0561	-0.0566	-0.0353	-0.0352	-0.0370	-0.0015	-0.0019	0.0022	-0.0010	-0.0486	0.0021	-0.0078	0.0020
1952.0000	-0.0128	-0.0060	-0.0426	-0.0555	-0.0550	-0.0352	-0.0352	-0.0386	-0.0015	-0.0020	0.0021	-0.0014	-0.0500	0.0022	-0.0083	0.0016
1960.0000	-0.0132	-0.0061	-0.0425	-0.0553	-0.0565	-0.0358	-0.0358	-0.0401	-0.0016	-0.0021	0.0020	-0.0020	-0.0514	0.0025	-0.0090	0.0012
1968.0000	-0.0137	-0.0070	-0.0421	-0.0562	-0.0606	-0.0369	-0.0369	-0.0412	-0.0017	-0.0022	0.0019	-0.0024	-0.0526	0.0028	-0.0096	0.0008
1976.0000	-0.0142	-0.0079	-0.0421	-0.0567	-0.0600	-0.0364	-0.0363	-0.0421	-0.0018	-0.0022	0.0017	-0.0022	-0.0539	0.0032	-0.0101	0.0003
1984.0000	-0.0147	-0.0077	-0.0424	-0.0569	-0.0588	-0.0344	-0.0344	-0.0431	-0.0018	-0.0023	0.0015	-0.0017	-0.0553	0.0034	-0.0107	-0.0001
1992.0000	-0.0152	-0.0070	-0.0427	-0.0587	-0.0636	-0.0329	-0.0329	-0.0443	-0.0019	-0.0025	0.0013	-0.0019	-0.0567	0.0034	-0.0113	-0.0004
2000.0000	-0.0157	-0.0067	-0.0434	-0.0608	-0.0665	-0.0309	-0.0308	-0.0456	-0.0020	-0.0024	0.0009	-0.0024	-0.0580	0.0032	-0.0118	-0.0006
2008.0000	-0.0163	-0.0071	-0.0447	-0.0614	-0.0629	-0.0280	-0.0280	-0.0469	-0.0021	-0.0025	0.0005	-0.0026	-0.0594	0.0030	-0.0122	-0.0006
2016.0000	-0.0168	-0.0074	-0.0461	-0.0627	-0.0646	-0.0269	-0.0268	-0.0482	-0.0021	-0.0028	0.0003	-0.0025	-0.0609	0.0031	-0.0126	-0.0005
2024.0000	-0.0172	-0.0072	-0.0474	-0.0657	-0.0724	-0.0269	-0.0269	-0.0496	-0.0022	-0.0028	0.0000	-0.0028	-0.0622	0.0029	-0.0130	-0.0005
2032.0000	-0.0178	-0.0073	-0.0490	-0.0667	-0.0698	-0.0246	-0.0246	-0.0510	-0.0023	-0.0026	-0.0002	-0.0033	-0.0634	0.0026	-0.0132	-0.0005
2040.0000	-0.0183	-0.0076	-0.0510	-0.0664	-0.0635	-0.0218	-0.0218	-0.0523	-0.0024	-0.0030	-0.0002	-0.0031	-0.0649	0.0028	-0.0135	-0.0004
2048.0000	-0.0190	-0.0076	-0.0526	-0.0701	-0.0757	-0.0230	-0.0230	-0.0537	-0.0025	-0.0034	-0.0002	-0.0028	-0.0662	0.0030	-0.0137	-0.0003
2056.0000	-0.0198	-0.0074	-0.0546	-0.0739	-0.0854	-0.0225	-0.0225	-0.0552	-0.0025	-0.0024	-0.0004	-0.0040	-0.0670	0.0024	-0.0137	-0.0007
2064.0000	-0.0207	-0.0078	-0.0581	-0.0656	-0.0472	-0.0100	-0.0099	-0.0566	-0.0026	-0.0003	-0.0008	-0.0061	-0.0677	0.0011	-0.0138	-0.0013
2072.0000	-0.0215	-0.0086	-0.0623	-0.0451	0.0242	0.0094	0.0094	-0.0580	-0.0027	0.0009	-0.0009	-0.0074	-0.0689	0.0003	-0.0140	-0.0017
2080.0000	-0.0221	-0.0090	-0.0652	-0.0271	0.0633	0.0195	0.0195	-0.0596	-0.0028	0.0004	-0.0008	-0.0072	-0.0704	0.0004	-0.0144	-0.0016
2088.0000	-0.0225	-0.0087	-0.0665	-0.0181	0.0547	0.0175	0.0176	-0.0612	-0.0029	-0.0002	-0.0006	-0.0071	-0.0718	0.0006	-0.0148	-0.0014
2096.0000	-0.0228	-0.0082	-0.0676	-0.0097	0.0436	0.0153	0.0153	-0.0626	-0.0030	-0.0003	-0.0007	-0.0076	-0.0733	0.0003	-0.0151	-0.0015
2104.0000	-0.0231	-0.0080	-0.0693	0.0029	0.0510	0.0175	0.0175	-0.0641	-0.0031	-0.0003	-0.0006	-0.0079	-0.0749	0.0002	-0.0155	-0.0015
2112.0000	-0.0236	-0.0079	-0.0710	0.0142	0.0546	0.0186	0.0187	-0.0658	-0.0032	-0.0007	-0.0006	-0.0078	-0.0762	0.0002	-0.0158	-0.0014
2120.0000	-0.0240	-0.0077	-0.0725	0.0233	0.0479	0.0174	0.0174	-0.0673	-0.0033	-0.0009	-0.0005	-0.0079	-0.0777	0.0002	-0.0162	-0.0014
2128.0000	-0.0244	-0.0075	-0.0740	0.0354	0.0471	0.0176	0.0176	-0.0688	-0.0034	-0.0009	-0.0006	-0.0083	-0.0795	0.0000	-0.0165	-0.0014
2136.0000	-0.0249	-0.0073	-0.0756	0.0488	0.0519	0.0191	0.0192	-0.0704	-0.0035	-0.0011	-0.0005	-0.0084	-0.0793	-0.0000	-0.0169	-0.0013
2144.0000	-0.0254	-0.0072	-0.0767	0.0561	0.0501	0.0190	0.0191	-0.0722	-0.0036	-0.0015	-0.0005	-0.0084	-0.0739	0.0000	-0.0172	-0.0013
2152.0000	-0.0258	-0.0069	-0.0754	0.0569	0.0464	0.0186	0.0186	-0.0735	-0.0037	-0.0016	-0.0006	-0.0087	-0.0633	-0.0001	-0.0175	-0.0013
2160.0000	-0.0263	-0.0067	-0.0696	0.0566	0.0487	0.0195	0.0195	-0.0750	-0.0038	-0.0017	-0.0006	-0.0090	-0.0509	-0.0001	-0.0179	-0.0012
2168.0000	-0.0268	-0.0066	-0.0600	0.0569	0.0502	0.0201	0.0201	-0.0770	-0.0039	-0.0020	-0.0005	-0.0091	-0.0396	0.0000	-0.0182	-0.0012
2176.0000	-0.0273	-0.0063	-0.0498	0.0561	0.0469	0.0196	0.0196	-0.0785	-0.0040	-0.0022	-0.0005	-0.0093	-0.0294	0.0001	-0.0184	-0.0012
2184.0000	-0.0276	-0.0061	-0.0406	0.0551	0.0461	0.0196	0.0197	-0.0796	-0.0041	-0.0022	-0.0005	-0.0096	-0.0192	-0.0000	-0.0188	-0.0012
2192.0000	-0.0280	-0.0059	-0.0311	0.0551	0.0484	0.0204	0.0205	-0.0816	-0.0042	-0.0024	-0.0004	-0.0098	-0.0087	-0.0001	-0.0192	-0.0011
2200.0000	-0.0286	-0.0056	-0.0211	0.0547	0.0473	0.0204	0.0204	-0.0840	-0.0043	-0.0026	-0.0004	-0.0099	0.0012	-0.0001	-0.0195	-0.0011
2208.0000	-0.0289	-0.0053	-0.0118	0.0537	0.0448	0.0200	0.0201	-0.0823	-0.0044	-0.0027	-0.0004	-0.0101	0.0109	-0.0002	-0.0199	-0.0011
2216.0000	-0.0293	-0.0051	-0.0031	0.0532	0.0458	0.0205	0.0206	-0.0743	-0.0045	-0.0028	-0.0004	-0.0104	0.0208	-0.0003	-0.0203	-0.0011
2224.0000	-0.0299	-0.0049	0.0057	0.0531	0.0466	0.0209	0.0209	-0.0637	-0.0046	-0.0028	-0.0004	-0.0104	0.0308	-0.0004	-0.0207	-0.0010
2232.0000	-0.0306	-0.0047	0.0141	0.0522	0.0444	0.0205	0.0206	-0.0543	-0.0047	-0.0028	-0.0005	-0.0105	0.0399	-0.0005	-0.0210	-0.0010
2240.0000	-0.0305	-0.0045	0.0216	0.0514	0.0434	0.0205	0.0205	-0.0459	-0.0048	-0.0028	-0.0007	-0.0107	0.0483	-0.0007	-0.0214	-0.0010
2248.0000	-0.0290	-0.0044	0.0290	0.0510	0.0447	0.0210	0.0210	-0.0370	-0.0047	-0.0028	-0.0008	-0.0109	0.0571	-0.0008	-0.0219	-0.0010
2256.0000	-0.0261	-0.0043	0.0369	0.0505	0.0439	0.0209	0.0209	-0.0282	-0.0045	-0.0028	-0.0009	-0.0109	0.0649	-0.0009	-0.0221	-0.0010
2264.0000	-0.0217	-0.0042	0.0444	0.0496	0.0419	0.0205	0.0206	-0.0199	-0.0043	-0.0027	-0.0010	-0.0110	0.0690	-0.0009	-0.0225	-0.0010
2272.0000	-0.0159	-0.0039	0.0522	0.0491	0.0424	0.0209	0.0209	-0.0108	-0.0042	-0.0028	-0.0011	-0.0111	0.0688	-0.0009	-0.0229	-0.0011
2280.0000	-0.0095	-0.0036	0.0615	0.0489	0.0430	0.0212	0.0213	-0.0007	-0.0043	-0.0030	-0.0014	-0.0110	0.0673	-0.0007	-0.0232	-0.0012
2288.0000	-0.0038	-0.0033	0.0697	0.0482	0.0414	0.0211	0.0211	0.0084	-0.0043	-0.0032	-0.0016	-0.0109	0.0668	-0.0005	-0.0234	-0.0013
2296.0000	0.0011	-0.0030	0.0729	0.0474	0.0405	0.0210	0.0210	0.0158	-0.0042	-0.0034	-0.0017	-0.0110	0.0665	-0.0005	-0.0239	-0.0013
2304.0000	0.0056	-0.0027	0.0717	0.0470	0.0412	0.0213	0.0213	0.0225	-0.0040	-0.0034	-0.0018	-0.0111	0.0656	-0.0005	-0.0243	-0.0013
2312.0000	0.0096	-0.0024	0.0701	0.0464	0.0405	0.0211	0.0211	0.0288	-0.0037	-0.0035	-0.0017	-0.0110	0.0645	-0.0006	-0.0245	-0.0013
2320.0000	0.0133	-0.0023	0.0696	0.0454	0.0387	0.0207	0.0207	0.0341	-0.0035	-0.0035	-0.0017	-0.0110	0.0638	-0.0006	-0.0248	-0.0014
2328.0000	0.0173	-0.0022	0.0688	0.0447	0.0387	0.0207	0.0208	0.0391	-0.0034	-0.0034	-0.0018	-0.0112	0.0630	-0.0006	-0.0253	-0.0014
2336.0000	0.0214	-0.0022	0.0674	0.0442	0.0389	0.0208	0.0208	0.0447	-0.0032	-0.0035	-0.0018	-0.0111	0.0619	-0.0006	-0.0256	-0.0014
2344.0000	0.0254	-0.0021	0.0665	0.0434	0.0374	0.0205	0.0205	0.0502	-0.0032	-0.0036	-0.0019	-0.0109	0.0610	-0.0007	-0.0257	-0.0014
2352.0000	0.0295	-0.0020	0.0659	0.0425	0.0365	0.0203	0.0203	0.0554	-0.0031	-0.0036	-0.0021	-0.0110	0.0604	-0.0007	-0.0262	-0.0015
2360.0000	0.0338	-0.0019	0.0648	0.0421	0.0370	0.0205	0.0205	0.0614	-0.0032	-0.0034	-0.0023	-0.0111	0.0595	-0.0008	-0.0266	-0.0015
2368.0000	0.0381	-0.0017	0.0638	0.0416	0.0365	0.0205	0.0205	0.0682	-0.0032	-0.0031	-0.0025	-0.0110	0.0586	-0.0008	-0.0267	-0.0016
2376.0000	0.0421	-0.0016	0.0631	0.0408	0.0350	0.0202	0.0202	0.0729	-0.0033	-0.0029	-0.0027	-0.0108	0.0579	-0.0009	-0.0269	-0.0018
2384.0000	0.0458	-0.0016	0.0622	0.0402	0.0349	0.0203	0.0202	0.0739	-0.0032	-0.0030	-0.0029	-0.0108	0.0571	-0.0010	-0.0275	-0.0018
2392.0000	0.0493	-0.0016	0.0612	0.0397	0.0351	0.0203	0.0203	0.0728	-0.0031	-0.0031	-0.0030	-0.0108	0.0562	-0.0010	-0.0263	-0.0017
2400.0000	0.0522	-0.0016	0.0602	0.0390	0.0339	0.0200	0.0200	0.0717	-0.0030	-0.0031	-0.0031	-0.0105	0.0554	-0.0010	-0.0220	-0.0017
2408.0000	0.0544	-0.0016	0.0594	0.0381	0.0329	0.0198	0.0198	0.0708	-0.0027	-0.0030	-0.0030	-0.0104	0.0546	-0.0010	-0.0159	-0.0016
2416.0000	0.0560	-0.0016	0.0583	0.0375	0.0331	0.0198	0.0198	0.0696	-0.0023	-0.0029	-0.0029	-0.0104	0.0537	-0.0011	-0.0106	-0.0015
2424.0000	0.0572	-0.0016	0.0572	0.0369	0.0325	0.0196	0.0196	0.0683	-0.0020	-0.0027	-0.0028	-0.0098	0.0526	-0.0011	-0.0061	-0.0015
2432.0000	0.0579	-0.0016	0.0562	0.0360	0.0311	0.0192	0.0192	0.0673	-0.0017	-0.0025	-0.0027	-0.0080	0.0518	-0.0011	-0.0017	-0.0014
2440.0000	0.0585	-0.0016	0.0552	0.0352	0.0307	0.0190	0.0190	0.0661	-0.0013	-0.0023	-0.0026	-0.0056	0.0509	-0.0011	0.0029	-0.0014
2448.0000	0.0595	-0.0016	0.0541	0.0347	0.0307	0.0189	0.0189	0.0648	-0.0010	-0.0021	-0.0025	-0.0025	0.0498	-0.0012	0.0075	-0.0013
2456.0000	0.0606	-0.0016	0.0531	0.0339	0.0296	0.0186	0.0186	0.0637	-0.0008	-0.0021	-0.0024	0.0015	0.0489	-0.0012	0.0121	-0.0012
2464.0000	0.0618	-0.0016	0.0522	0.0331	0.0286	0.0183	0.0183	0.0626	-0.0006	-0.0020	-0.0024	0.0060	0.0481	-0.0012	0.0165	-0.0012
2472.0000	0.0630	-0.0016	0.0511	0.0325	0.0287	0.0182	0.0182	0.0614	-0.0003	-0.0018	-0.0023	0.0101	0.0471	-0.0012	0.0200	-0.0011
2480.0000	0.0641	-0.0016	0.0500	0.0318	0.0281	0.0180	0.0180	0.0601	-0.0000	-0.0016	-0.0023	0.0137	0.0461	-0.0012	0.0231	-0.0010
2488.0000	0.0651	-0.0015	0.0491	0.0310	0.0269	0.0176	0.0176	0.0590	0.0002	-0.0014	-0.0022	0.0172	0.0452	-0.0012	0.0264	-0.0010
2496.0000	0.0663	-0.0014	0.0481	0.0303	0.0265	0.0174	0.0174	0.0579	0.0003	-0.0014	-0.0021	0.0208	0.0443	-0.0012	0.0299	-0.0010
2504.0000	0.0678	-0.0012	0.0471	0.0297	0.0265	0.0173	0.0173	0.0567	0.0005	-0.0012	-0.0020	0.0243	0.0434	-0.0012	0.0332	-0.0009
2512.0000	0.0690	-0.0011	0.0461	0.0290	0.0254	0.0169	0.0169	0.0555	0.0006	-0.0010	-0.0019	0.0275	0.0424	-0.0012	0.0362	-0.0009
2520.0000	0.0698	-0.0009	0.0451	0.0282	0.0245	0.0166	0.0166	0.0543	0.0008	-0.0009	-0.0018	0.0302	0.0416	-0.0012	0.0387	-0.0008
2528.0000	0.0704	-0.0008	0.0440	0.0275	0.0244	0.0164	0.0164	0.0530	0.0012	-0.0006	-0.0017	0.0325	0.0406	-0.0012	0.0405	-0.0008
2536.0000	0.0706	-0.0007	0.0429	0.0268	0.0238	0.0161	0.0161	0.0518	0.0017	-0.0002	-0.0016	0.0344	0.0396	-0.0012	0.0420	-0.0008
2544.0000	0.0695	-0.0006	0.0418	0.0259	0.0225	0.0155	0.0155	0.0505	0.0022	0.0002	-0.0015	0.0354	0.0386	-0.0011	0.0433	-0.0007
2552.0000	0.0674	-0.0006	0.0406	0.0250	0.0219	0.0151	0.0151	0.0491	0.0024	0.0004	-0.0014	0.0352	0.0376	-0.0012	0.0438	-0.0007
2560.0000	0.0653	-0.0006	0.0394	0.0242	0.0215	0.0147	0.0147	0.0477	0.0026	0.0004	-0.0013	0.0340	0.0364	-0.0012	0.0437	-0.0007
2568.0000	0.0639	-0.0006	0.0382	0.0233	0.0204	0.0141	0.0141	0.0463	0.0028	0.0006	-0.0012	0.0330	0.0352	-0.0011	0.0441	-0.0006
2576.0000	0.0625	-0.0006	0.0371	0.0224	0.0193	0.0136	0.0136	0.0450	0.0031	0.0008	-0.0011	0.0325	0.0342	-0.0011	0.0453	-0.0006
2584.0000	0.0608	-0.0006	0.0359	0.0216	0.0190	0.0132	0.0132	0.0436	0.0033	0.0009	-0.0010	0.0319	0.0331	-0.0011	0.0459	-0.0005
2592.0000	0.0592	-0.0007	0.0347	0.0208	0.0184	0.0128	0.0128	0.0423	0.0035	0.0009	-0.0009	0.0311	0.0320	-0.0011	0.0452	-0.0005
2600.0000	0.0576	-0.0007	0.0336	0.0199	0.0172	0.0122	0.0122	0.0410	0.0037	0.0010	-0.0009	0.0304	0.0309	-0.0011	0.0440	-0.0004
2608.0000	0.0560	-0.0007	0.0326	0.0191	0.0166	0.0118	0.0118	0.0397	0.0039	0.0011	-0.0008	0.0299	0.0300	-0.0010	0.0430	-0.0004
2616.0000	0.0542	-0.0007	0.0314	0.0184	0.0163	0.0114	0.0114	0.0384	0.0040	0.0012	-0.0007	0.0293	0.0289	-0.0010	0.0424	-0.0003
2624.0000	0.0524	-0.0006	0.0303	0.0176	0.0154	0.0109	0.0109	0.0371	0.0041	0.0012	-0.0006	0.0285	0.0279	-0.0010	0.0417	-0.0002
2632.0000	0.0505	-0.0006	0.0294	0.0168	0.0144	0.0104	0.0104	0.0359	0.0042	0.0013	-0.0006	0.0277	0.0269	-0.0009	0.0409	-0.0001
2640.0000	0.0488	-0.0004	0.0283	0.0161	0.0141	0.0101	0.0101	0.0347	0.0044	0.0013	-0.0005	0.0270	0.0260	-0.0009	0.0403	-0.0001
2648.0000	0.0470	-0.0003	0.0272	0.0155	0.0136	0.0097	0.0097	0.0335	0.0045	0.0013	-0.0004	0.0261	0.0250	-0.0009	0.0397	-0.0000
2656.0000	0.0452	-0.0001	0.0263	0.0147	0.0126	0.0092	0.0092	0.0323	0.0046	0.0015	-0.0003	0.0250	0.0240	-0.0008	0.0390	-0.0000
2664.0000	0.0435	-0.0000	0.0253	0.0140	0.0120	0.0089	0.0089	0.0311	0.0047	0.0016	-0.0002	0.0239	0.0232	-0.0007	0.0383	0.0000
2672.0000	0.0418	0.0001	0.0243	0.0134	0.0118	0.0086	0.0086	0.0300	0.0048	0.0016	-0.0001	0.0230	0.0222	-0.0007	0.0377	0.0002
2680.0000	0.0397	0.0002	0.0234	0.0128	0.0110	0.0082	0.0081	0.0289	0.0049	0.0016	0.0000	0.0219	0.0213	-0.0006	0.0370	0.0003
2688.0000	0.0366	0.0002	0.0225	0.0121	0.0102	0.0077	0.0077	0.0278	0.0049	0.0017	0.0001	0.0200	0.0205	-0.0006	0.0361	0.0004
2696.0000	0.0333	0.0001	0.0216	0.0115	0.0099	0.0075	0.0075	0.0267	0.0049	0.0016	0.0000	0.0172	0.0197	-0.0006	0.0350	0.0004
2704.0000	0.0307	0.0001	0.0207	0.0109	0.0095	0.0071	0.0071	0.0256	0.0049	0.0016	-0.0000	0.0147	0.0188	-0.0006	0.0339	0.0004
2712.0000	0.0285	0.0001	0.0198	0.0103	0.0087	0.0067	0.0067	0.0246	0.0049	0.0016	0.0000	0.0132	0.0180	-0.0006	0.0333	0.0004
2720.0000	0.0263	0.0002	0.0190	0.0097	0.0082	0.0064	0.0064	0.0236	0.0050	0.0017	0.0001	0.0121	0.0172	-0.0005	0.0328	0.0005
2728.0000	0.0238	0.0002	0.0181	0.0092	0.0080	0.0062	0.0062	0.0226	0.0051	0.0017	0.0001	0.0104	0.0165	-0.0004	0.0322	0.0006
2736.0000	0.0214	0.0002	0.0173	0.0087	0.0074	0.0058	0.0058	0.0217	0.0051	0.0017	0.0002	0.0087	0.0157	-0.0003	0.0316	0.0006
2744.0000	0.0191	0.0003	0.0166	0.0081	0.0067	0.0055	0.0055	0.0207	0.0052	0.0018	0.0002	0.0072	0.0150	-0.0003	0.0310	0.0006
2752.0000	0.0167	0.0003	0.0158	0.0076	0.0065	0.0052	0.0052	0.0198	0.0052	0.0019	0.0003	0.0059	0.0143	-0.0002	0.0305	0.0007
2760.0000	0.0141	0.0003	0.0150	0.0072	0.0062	0.0050	0.0050	0.0189	0.0053	0.0019	0.0003	0.0046	0.0135	-0.0002	0.0299	0.0007
2768.0000	0.0113	0.0003	0.0143	0.0067	0.0055	0.0046	0.0046	0.0181	0.0053	0.0020	0.0003	0.0037	0.0128	-0.0001	0.0293	0.0007
2776.0000	0.0083	0.0003	0.0136	0.0062	0.0051	0.0044	0.0044	0.0172	0.0054	0.0022	0.0004	0.0033	0.0122	-0.0000	0.0288	0.0007
2784.0000	0.0050	0.0003	0.0128	0.0058	0.0050	0.0042	0.0042	0.0164	0.0055	0.0023	0.0004	0.0028	0.0115	0.0000	0.0283	0.0007
2792.0000	0.0015	0.0004	0.0122	0.0054	0.0045	0.0039	0.0039	0.0156	0.0056	0.0024	0.0004	0.0019	0.0109	0.0001	0.0277	0.0007
2800.0000	-0.0022	0.0004	0.0115	0.0049	0.0039	0.0036	0.0036	0.0148	0.0056	0.0024	0.0004	0.0008	0.0103	0.0002	0.0272	0.0007
2808.0000	-0.0061	0.0003	0.0109	0.0045	0.0037	0.0034	0.0034	0.0141	0.0056	0.0025	0.0004	0.0002	0.0097	0.0002	0.0267	0.0008
2816.0000	-0.0101	0.0003	0.0102	0.0041	0.0035	0.0032	0.0032	0.0134	0.0056	0.0025	0.0005	-0.0003	0.0091	0.0002	0.0263	0.0008
2824.0000	-0.0143	0.0002	0.0096	0.0037	0.0030	0.0029	0.0029	0.0127	0.0056	0.0025	0.0005	-0.0009	0.0085	0.0003	0.0259	0.0008
2832.0000	-0.0182	0.0001	0.0090	0.0034	0.0026	0.0027	0.0027	0.0120	0.0056	0.0026	0.0005	-0.0017	0.0080	0.0003	0.0255	0.0009
2840.0000	-0.0218	0.0001	0.0084	0.0031	0.0026	0.0025	0.0025	0.0114	0.0057	0.0026	0.0005	-0.0025	0.0074	0.0003	0.0252	0.0009
2848.0000	-0.0251	0.0000	0.0079	0.0027	0.0022	0.0023	0.0023	0.0108	0.0058	0.0027	0.0005	-0.0031	0.0069	0.0004	0.0248	0.0009
2856.0000	-0.0284	-0.0001	0.0074	0.0024	0.0017	0.0021	0.0021	0.0102	0.0059	0.0027	0.0005	-0.0037	0.0064	0.0004	0.0244	0.0009
2864.0000	-0.0310	-0.0002	0.0068	0.0021	0.0016	0.0019	0.0019	0.0097	0.0061	0.0027	0.0005	-0.0045	0.0060	0.0005	0.0236	0.0009
2872.0000	-0.0328	-0.0004	0.0063	0.0018	0.0015	0.0018	0.0018	0.0091	0.0062	0.0027	0.0006	-0.0052	0.0055	0.0005	0.0228	0.0009
2880.0000	-0.0340	-0.0005	0.0058	0.0015	0.0010	0.0015	0.0015	0.0086	0.0063	0.0026	0.0006	-0.0060	0.0050	0.0006	0.0218	0.0009
2888.0000	-0.0348	-0.0008	0.0054	0.0012	0.0007	0.0014	0.0014	0.0082	0.0064	0.0026	0.0006	-0.0071	0.0046	0.0006	0.0206	0.0008
2896.0000	-0.0351	-0.0010	0.0049	0.0010	0.0007	0.0013	0.0013	0.0077	0.0065	0.0025	0.0006	-0.0085	0.0042	0.0006	0.0196	0.0008
2904.0000	-0.0348	-0.0011	0.0044	0.0007	0.0005	0.0011	0.0011	0.0073	0.0066	0.0024	0.0007	-0.0095	0.0037	0.0006	0.0190	0.0008
2912.0000	-0.0342	-0.0012	0.0040	0.0004	0.0001	0.0009	0.0009	0.0069	0.0066	0.0023	0.0007	-0.0100	0.0034	0.0007	0.0187	0.0007
2920.0000	-0.0336	-0.0012	0.0036	0.0002	0.0000	0.0008	0.0008	0.0065	0.0066	0.0022	0.0008	-0.0102	0.0030	0.0007	0.0187	0.0007
2928.0000	-0.0330	-0.0013	0.0032	0.0001	-0.0000	0.0007	0.0007	0.0062	0.0065	0.0021	0.0009	-0.0103	0.0026	0.0008	0.0188	0.0006
2936.0000	-0.0323	-0.0013	0.0029	-0.0002	-0.0004	0.0005	0.0005	0.0060	0.0067	0.0019	0.0010	-0.0101	0.0023	0.0008	0.0188	0.0006
2944.0000	-0.0316	-0.0014	0.0025	-0.0004	-0.0006	0.0004	0.0004	0.0057	0.0069	0.0018	0.0010	-0.0099	0.0020	0.0009	0.0181	0.0006
2952.0000	-0.0309	-0.0014	0.0022	-0.0005	-0.0005	0.0004	0.0004	0.0054	0.0070	0.0017	0.0011	-0.0101	0.0017	0.0009	0.0168	0.0006
2960.0000	-0.0300	-0.0014	0.0018	-0.0006	-0.0007	0.0003	0.0003	0.0053	0.0067	0.0015	0.0011	-0.0104	0.0014	0.0010	0.0157	0.0006
2968.0000	-0.0289	-0.0015	0.0016	-0.0008	-0.0010	0.0001	0.0001	0.0051	0.0064	0.0014	0.0012	-0.0103	0.0011	0.0010	0.0149	0.0007
2976.0000	-0.0277	-0.0016	0.0013	-0.0009	-0.0010	0.0001	0.0001	0.0050	0.0062	0.0013	0.0013	-0.0100	0.0009	0.0011	0.0139	0.0008
2984.0000	-0.0262	-0.0015	0.0010	-0.0010	-0.0009	0.0001	0.0001	0.0049	0.0060	0.0012	0.0014	-0.0100	0.0006	0.0011	0.0126	0.0009
2992.0000	-0.0245	-0.0014	0.0007	-0.0011	-0.0012	-0.0000	-0.0000	0.0048	0.0054	0.0011	0.0014	-0.0103	0.0004	0.0011	0.0117	0.0009
3000.0000	-0.0229	-0.0012	0.0005	-0.0013	-0.0013	-0.0001	-0.0001	0.0047	0.0048	0.0010	0.0015	-0.0107	0.0002	0.0012	0.0116	0.0008
3008.0000	-0.0217	-0.0011	0.0002	-0.0014	-0.0013	-0.0002	-0.0002	0.0047	0.0045	0.0009	0.0015	-0.0115	-0.0001	0.0012	0.0119	0.0008
3016.0000	-0.0211	-0.0010	-0.0000	-0.0015	-0.0014	-0.0002	-0.0002	0.0047	0.0044	0.0008	0.0015	-0.0127	-0.0003	0.0012	0.0114	0.0008
3024.0000	-0.0209	-0.0010	-0.0002	-0.0016	-0.0016	-0.0004	-0.0004	0.0047	0.0042	0.0007	0.0015	-0.0138	-0.0005	0.0012	0.0099	0.0007
3032.0000	-0.0208	-0.0009	-0.0004	-0.0017	-0.0016	-0.0004	-0.0004	0.0047	0.0039	0.0006	0.0015	-0.0147	-0.0007	0.0013	0.0077	0.0007
3040.0000	-0.0207	-0.0009	-0.0007	-0.0017	-0.0015	-0.0004	-0.0004	0.0048	0.0033	0.0005	0.0015	-0.0156	-0.0009	0.0013	0.0045	0.0007
3048.0000	-0.0208	-0.0008	-0.0009	-0.0018	-0.0017	-0.0005	-0.0005	0.0049	0.0027	0.0004	0.0015	-0.0167	-0.0010	0.0013	0.0003	0.0006
3056.0000	-0.0207	-0.0007	-0.0011	-0.0020	-0.0019	-0.0006	-0.0006	0.0050	0.0023	0.0004	0.0014	-0.0178	-0.0012	0.0014	-0.0039	0.0004
3064.0000	-0.0203	-0.0006	-0.0013	-0.0020	-0.0018	-0.0006	-0.0007	0.0051	0.0019	0.0004	0.0014	-0.0188	-0.0014	0.0014	-0.0064	0.0003
3072.0000	-0.0198	-0.0005	-0.0014	-0.0021	-0.0019	-0.0007	-0.0007	0.0053	0.0014	0.0003	0.0014	-0.0196	-0.0016	0.0014	-0.0071	0.0002
3080.0000	-0.0192	-0.0003	-0.0016	-0.0022	-0.0021	-0.0008	-0.0008	0.0055	0.0009	0.0004	0.0014	-0.0203	-0.0017	0.0014	-0.0077	0.0001
3088.0000	-0.0186	-0.0000	-0.0018	-0.0022	-0.0021	-0.0008	-0.0008	0.0057	0.0006	0.0005	0.0014	-0.0209	-0.0018	0.0014	-0.0097	-0.0000
3096.0000	-0.0179	0.0002	-0.0019	-0.0023	-0.0020	-0.0009	-0.0009	0.0059	0.0001	0.0005	0.0014	-0.0217	-0.0020	0.0014	-0.0123	-0.0001
3104.0000	-0.0172	0.0003	-0.0021	-0.0023	-0.0021	-0.0009	-0.0009	0.0062	-0.0006	0.0005	0.0013	-0.0225	-0.0021	0.0015	-0.0144	-0.0001
3112.0000	-0.0165	0.0004	-0.0022	-0.0024	-0.0022	-0.0010	-0.0010	0.0065	-0.0012	0.0003	0.0013	-0.0233	-0.0022	0.0015	-0.0161	-0.0003
3120.0000	-0.0158	0.0005	-0.0023	-0.0024	-0.0022	-0.0010	-0.0010	0.0068	-0.0018	0.0002	0.0013	-0.0242	-0.0023	0.0015	-0.0177	-0.0004
3128.0000	-0.0151	0.0006	-0.0024	-0.0025	-0.0022	-0.0011	-0.0011	0.0072	-0.0026	0.0001	0.0012	-0.0250	-0.0024	0.0016	-0.0188	-0.0004
3136.0000	-0.0145	0.0006	-0.0025	-0.0025	-0.0023	-0.0011	-0.0011	0.0076	-0.0034	-0.0001	0.0012	-0.0255	-0.0025	0.0016	-0.0198	-0.0004
3144.0000	-0.0139	0.0007	-0.0026	-0.0025	-0.0023	-0.0011	-0.0011	0.0080	-0.0039	-0.0002	0.0011	-0.0260	-0.0026	0.0016	-0.0208	-0.0003
3152.0000	-0.0132	0.0008	-0.0027	-0.0025	-0.0022	-0.0011	-0.0011	0.0085	-0.0046	-0.0003	0.0011	-0.0268	-0.0027	0.0016	-0.0205	-0.0002
3160.0000	-0.0126	0.0010	-0.0028	-0.0025	-0.0023	-0.0012	-0.0012	0.0090	-0.0059	-0.0004	0.0011	-0.0277	-0.0027	0.0017	-0.0185	-0.0001
3168.0000	-0.0122	0.0012	-0.0028	-0.0026	-0.0023	-0.0012	-0.0012	0.0095	-0.0068	-0.0005	0.0011	-0.0283	-0.0028	0.0018	-0.0166	-0.0002
3176.0000	-0.0115	0.0012	-0.0029	-0.0025	-0.0022	-0.0012	-0.0012	0.0100	-0.0071	-0.0006	0.0011	-0.0288	-0.0028	0.0018	-0.0167	-0.0003
3184.0000	-0.0108	0.0012	-0.0029	-0.0025	-0.0022	-0.0012	-0.0012	0.0106	-0.0074	-0.0007	0.0011	-0.0295	-0.0029	0.0018	-0.0177	-0.0002
3192.0000	-0.0104	0.0014	-0.0030	-0.0025	-0.0023	-0.0012	-0.0012	0.0112	-0.0080	-0.0008	0.0010	-0.0299	-0.0029	0.0019	-0.0179	-0.0002
3200.0000	-0.0099	0.0015	-0.0030	-0.0025	-0.0023	-0.0012	-0.0012	0.0118	-0.0080	-0.0008	0.0010	-0.0301	-0.0029	0.0019	-0.0177	-0.0003
3208.0000	-0.0089	0.0013	-0.0030	-0.0025	-0.0021	-0.0012	-0.0012	0.0125	-0.0078	-0.0009	0.0010	-0.0308	-0.0029	0.0019	-0.0178	-0.0004
3216.0000	-0.0085	0.0013	-0.0030	-0.0024	-0.0022	-0.0012	-0.0012	0.0132	-0.0080	-0.0010	0.0010	-0.0317	-0.0029	0.0019	-0.0175	-0.0004
3224.0000	-0.0091	0.0021	-0.0031	-0.0025	-0.0023	-0.0013	-0.0013	0.0138	-0.0080	-0.0012	0.0009	-0.0321	-0.0029	0.0020	-0.0169	-0.0006
3232.0000	-0.0096	0.0033	-0.0033	-0.0026	-0.0023	-0.0014	-0.0014	0.0144	-0.0075	-0.0012	0.0009	-0.0326	-0.0029	0.0020	-0.0165	-0.0007
3240.0000	-0.0090	0.0038	-0.0033	-0.0026	-0.0023	-0.0014	-0.0014	0.0151	-0.0075	-0.0014	0.0009	-0.0337	-0.0029	0.0020	-0.0161	-0.0007
3248.0000	-0.0078	0.0032	-0.0032	-0.0025	-0.0023	-0.0013	-0.0013	0.0160	-0.0081	-0.0016	0.0009	-0.0345	-0.0029	0.0021	-0.0153	-0.0007
3256.0000	-0.0068	0.0020	-0.0031	-0.0024	-0.0021	-0.0012	-0.0012	0.0169	-0.0066	-0.0014	0.0009	-0.0336	-0.0029	0.0021	-0.0152	-0.0011
3264.0000	-0.0056	0.0014	-0.0030	-0.0022	-0.0019	-0.0010	-0.0010	0.0178	-0.0024	-0.0008	0.0010	-0.0329	-0.0031	0.0018	-0.0167	-0.0016
3272.0000	-0.0045	0.0021	-0.0029	-0.0021	-0.0019	-0.0010	-0.0010	0.0187	0.0013	-0.0003	0.0008	-0.0347	-0.0033	0.0011	-0.0184	-0.0017
3280.0000	-0.0048	0.0036	-0.0031	-0.0023	-0.0020	-0.0012	-0.0012	0.0195	0.0018	-0.0004	0.0003	-0.0378	-0.0033	0.0004	-0.0188	-0.0017
3288.0000	-0.0067	0.0049	-0.0033	-0.0024	-0.0022	-0.0014	-0.0014	0.0201	0.0011	-0.0007	0.0001	-0.0393	-0.0033	0.0003	-0.0182	-0.0017
3296.0000	-0.0087	0.0049	-0.0034	-0.0026	-0.0023	-0.0015	-0.0015	0.0209	0.0015	-0.0005	0.0005	-0.0385	-0.0033	0.0007	-0.0176	-0.0018
3304.0000	-0.0095	0.0038	-0.0034	-0.0026	-0.0023	-0.0015	-0.0015	0.0218	0.0023	-0.0003	0.0010	-0.0379	-0.0032	0.0010	-0.0172	-0.0017
3312.0000	-0.0094	0.0030	-0.0034	-0.0025	-0.0023	-0.0015	-0.0015	0.0228	0.0023	-0.0009	0.0009	-0.0389	-0.0032	0.0009	-0.0169	-0.0014
3320.0000	-0.0092	0.0027	-0.0033	-0.0025	-0.0022	-0.0015	-0.0015	0.0238	0.0021	-0.0017	0.0005	-0.0406	-0.0032	0.0005	-0.0169	-0.0010
3328.0000	-0.0089	0.0025	-0.0033	-0.0024	-0.0022	-0.0015	-0.0015	0.0248	0.0025	-0.0022	0.0004	-0.0416	-0.0031	0.0004	-0.0171	-0.0005
3336.0000	-0.0086	0.0020	-0.0032	-0.0024	-0.0021	-0.0014	-0.0014	0.0259	0.0028	-0.0024	0.0005	-0.0420	-0.0031	0.0003	-0.0168	-0.0001
3344.0000	-0.0084	0.0014	-0.0032	-0.0023	-0.0020	-0.0014	-0.0014	0.0269	0.0026	-0.0026	0.0004	-0.0422	-0.0030	0.0001	-0.0164	0.0001
3352.0000	-0.0081	0.0011	-0.0031	-0.0022	-0.0020	-0.0014	-0.0014	0.0281	0.0027	-0.0027	0.0004	-0.0426	-0.0030	-0.0004	-0.0163	0.0003
3360.0000	-0.0078	0.0008	-0.0031	-0.0022	-0.0020	-0.0013	-0.0013	0.0292	0.0028	-0.0027	0.0004	-0.0427	-0.0029	-0.0008	-0.0162	0.0005
3368.0000	-0.0075	0.0006	-0.0030	-0.0021	-0.0019	-0.0013	-0.0013	0.0303	0.0027	-0.0026	0.0004	-0.0428	-0.0029	-0.0011	-0.0159	0.0005
3376.0000	-0.0073	0.0004	-0.0030	-0.0021	-0.0018	-0.0013	-0.0013	0.0315	0.0025	-0.0025	0.0003	-0.0432	-0.0028	-0.0014	-0.0156	0.0005
3384.0000	-0.0070	0.0000	-0.0029	-0.0020	-0.0018	-0.0012	-0.0012	0.0327	0.0026	-0.0023	0.0003	-0.0441	-0.0027	-0.0016	-0.0154	0.0005
3392.0000	-0.0067	-0.0005	-0.0028	-0.0020	-0.0018	-0.0012	-0.0012	0.0339	0.0026	-0.0020	0.0003	-0.0452	-0.0027	-0.0016	-0.0151	0.0005
3400.0000	-0.0065	-0.0009	-0.0028	-0.0019	-0.0017	-0.0012	-0.0012	0.0350	0.0025	-0.0018	0.0003	-0.0460	-0.0026	-0.0015	-0.0147	0.0005
3408.0000	-0.0063	-0.0010	-0.0028	-0.0019	-0.0016	-0.0012	-0.0012	0.0363	0.0024	-0.0017	0.0002	-0.0466	-0.0026	-0.0015	-0.0144	0.0005
3416.0000	-0.0059	-0.0010	-0.0027	-0.0018	-0.0016	-0.0011	-0.0011	0.0376	0.0024	-0.0016	0.0002	-0.0472	-0.0025	-0.0016	-0.0141	0.0005
3424.0000	-0.0057	-0.0010	-0.0026	-0.0018	-0.0016	-0.0011	-0.0011	0.0388	0.0022	-0.0014	0.0002	-0.0479	-0.0025	-0.0016	-0.0136	0.0004
3432.0000	-0.0054	-0.0011	-0.0026	-0.0017	-0.0015	-0.0011	-0.0011	0.0401	0.0021	-0.0013	0.0002	-0.0488	-0.0024	-0.0017	-0.0132	0.0004
3440.0000	-0.0052	-0.0010	-0.0026	-0.0017	-0.0015	-0.0011	-0.0011	0.0414	0.0022	-0.0012	0.0001	-0.0494	-0.0024	-0.0017	-0.0129	0.0004
3448.0000	-0.0049	-0.0009	-0.0025	-0.0017	-0.0015	-0.0011	-0.0011	0.0427	0.0023	-0.0011	0.0001	-0.0494	-0.0023	-0.0017	-0.0125	0.0004
3456.0000	-0.0047	-0.0010	-0.0024	-0.0016	-0.0014	-0.0010	-0.0010	0.0440	0.0023	-0.0011	0.0001	-0.0487	-0.0023	-0.0017	-0.0121	0.0003
3464.0000	-0.0045	-0.0011	-0.0024	-0.0016	-0.0014	-0.0010	-0.0010	0.0454	0.0023	-0.0010	0.0000	-0.0477	-0.0022	-0.0017	-0.0117	0.0003
3472.0000	-0.0042	-0.0011	-0.0023	-0.0016	-0.0014	-0.0010	-0.0010	0.0468	0.0022	-0.0010	-0.0000	-0.0463	-0.0022	-0.0017	-0.0114	0.0002
3480.0000	-0.0039	-0.0011	-0.0023	-0.0015	-0.0014	-0.0010	-0.0010	0.0482	0.0019	-0.0009	-0.0000	-0.0441	-0.0021	-0.0017	-0.0110	0.0002
3488.0000	-0.0037	-0.0011	-0.0022	-0.0015	-0.0013	-0.0010	-0.0010	0.0496	0.0016	-0.0010	-0.0001	-0.0412	-0.0021	-0.0017	-0.0106	0.0001
3496.0000	-0.0035	-0.0010	-0.0022	-0.0014	-0.0013	-0.0010	-0.0010	0.0511	0.0015	-0.0011	-0.0002	-0.0374	-0.0020	-0.0016	-0.0103	0.0000
3504.0000	-0.0032	-0.0010	-0.0021	-0.0014	-0.0012	-0.0009	-0.0009	0.0525	0.0016	-0.0011	-0.0002	-0.0328	-0.0020	-0.0016	-0.0100	-0.0000
3512.0000	-0.0029	-0.0009	-0.0021	-0.0013	-0.0012	-0.0009	-0.0009	0.0539	0.0016	-0.0011	-0.0002	-0.0277	-0.0019	-0.0016	-0.0096	-0.0001
3520.0000	-0.0027	-0.0008	-0.0020	-0.0013	-0.0011	-0.0009	-0.0009	0.0554	0.0016	-0.0010	-0.0002	-0.0231	-0.0019	-0.0014	-0.0094	-0.0001
3528.0000	-0.0024	-0.0008	-0.0020	-0.0013	-0.0011	-0.0009	-0.0009	0.0569	0.0018	-0.0010	-0.0002	-0.0184	-0.0018	-0.0013	-0.0091	-0.0001
3536.0000	-0.0021	-0.0007	-0.0019	-0.0012	-0.0011	-0.0008	-0.0008	0.0583	0.0019	-0.0009	-0.0002	-0.0113	-0.0018	-0.0012	-0.0087	-0.0002
3544.0000	-0.0019	-0.0006	-0.0019	-0.0012	-0.0011	-0.0008	-0.0008	0.0599	0.0019	-0.0010	-0.0003	-0.0014	-0.0017	-0.0012	-0.0084	-0.0002
3552.0000	-0.0016	-0.0003	-0.0018	-0.0012	-0.0011	-0.0008	-0.0008	0.0615	0.0020	-0.0010	-0.0003	0.0095	-0.0017	-0.0012	-0.0081	-0.0002
3560.0000	-0.0013	-0.0001	-0.0018	-0.0012	-0.0011	-0.0009	-0.0009	0.0626	0.0021	-0.0010	-0.0003	0.0202	-0.0017	-0.0012	-0.0078	-0.0002
3568.0000	-0.0011	0.0001	-0.0018	-0.0012	-0.0011	-0.0009	-0.0009	0.0629	0.0021	-0.0009	-0.0002	0.0311	-0.0016	-0.0011	-0.0075	-0.0002
3576.0000	-0.0009	0.0002	-0.0018	-0.0012	-0.0010	-0.0009	-0.0009	0.0627	0.0021	-0.0009	-0.0003	0.0418	-0.0016	-0.0011	-0.0072	-0.0002
3584.0000	-0.0007	0.0004	-0.0017	-0.0011	-0.0010	-0.0008	-0.0009	0.0619	0.0022	-0.0008	-0.0003	0.0511	-0.0016	-0.0010	-0.0069	-0.0002
3592.0000	-0.0006	0.0006	-0.0017	-0.0011	-0.0010	-0.0008	-0.0008	0.0605	0.0022	-0.0008	-0.0003	0.0590	-0.0015	-0.0010	-0.0066	-0.0003
3600.0000	-0.0004	0.0008	-0.0016	-0.0011	-0.0010	-0.0008	-0.0008	0.0583	0.0022	-0.0007	-0.0003	0.0667	-0.0015	-0.0010	-0.0063	-0.0003
3608.0000	-0.0002	0.0009	-0.0016	-0.0010	-0.0009	-0.0008	-0.0008	0.0554	0.0022	-0.0006	-0.0003	0.0743	-0.0015	-0.0010	-0.0061	-0.0003
3616.0000	-0.0000	0.0011	-0.0015	-0.0010	-0.0009	-0.0008	-0.0008	0.0516	0.0023	-0.0005	-0.0003	0.0808	-0.0014	-0.0010	-0.0059	-0.0003
3624.0000	0.0002	0.0012	-0.0015	-0.0009	-0.0009	-0.0007	-0.0007	0.0471	0.0022	-0.0004	-0.0003	0.0854	-0.0014	-0.0010	-0.0056	-0.0004
3632.0000	0.0003	0.0013	-0.0014	-0.0009	-0.0008	-0.0007	-0.0007	0.0422	0.0022	-0.0003	-0.0003	0.0887	-0.0013	-0.0010	-0.0054	-0.0004
3640.0000	0.0005	0.0015	-0.0013	-0.0008	-0.0007	-0.0006	-0.0006	0.0367	0.0023	-0.0002	-0.0003	0.0908	-0.0012	-0.0010	-0.0052	-0.0005
3648.0000	0.0006	0.0017	-0.0012	-0.0008	-0.0007	-0.0006	-0.0006	0.0310	0.0023	-0.0001	-0.0003	0.0915	-0.0011	-0.0010	-0.0049	-0.0005
3656.0000	0.0006	0.0017	-0.0011	-0.0007	-0.0006	-0.0005	-0.0005	0.0260	0.0023	-0.0000	-0.0004	0.0913	-0.0011	-0.0011	-0.0047	-0.0006
3664.0000	0.0006	0.0017	-0.0011	-0.0006	-0.0005	-0.0005	-0.0005	0.0213	0.0023	0.0001	-0.0004	0.0909	-0.0010	-0.0011	-0.0045	-0.0007
3672.0000	0.0006	0.0016	-0.0010	-0.0006	-0.0005	-0.0005	-0.0005	0.0159	0.0023	0.0003	-0.0004	0.0899	-0.0009	-0.0010	-0.0043	-0.0007
3680.0000	0.0006	0.0014	-0.0010	-0.0006	-0.0005	-0.0004	-0.0004	0.0104	0.0022	0.0006	-0.0004	0.0877	-0.0009	-0.0010	-0.0040	-0.0007
3688.0000	0.0005	0.0013	-0.0009	-0.0005	-0.0004	-0.0004	-0.0004	0.0060	0.0022	0.0008	-0.0004	0.0844	-0.0008	-0.0010	-0.0038	-0.0008
3696.0000	0.0004	0.0011	-0.0009	-0.0005	-0.0004	-0.0004	-0.0004	0.0027	0.0021	0.0010	-0.0004	0.0803	-0.0008	-0.0009	-0.0037	-0.0008
3704.0000	0.0004	0.0009	-0.0008	-0.0004	-0.0004	-0.0003	-0.0003	-0.0003	0.0020	0.0013	-0.0004	0.0758	-0.0007	-0.0006	-0.0035	-0.0008
3712.0000	0.0003	0.0005	-0.0007	-0.0004	-0.0003	-0.0003	-0.0003	-0.0026	0.0019	0.0015	-0.0004	0.0707	-0.0007	-0.0004	-0.0032	-0.0008
3720.0000	0.0001	0.0003	-0.0007	-0.0003	-0.0002	-0.0002	-0.0002	-0.0047	0.0018	0.0017	-0.0005	0.0651	-0.0006	-0.0002	-0.0030	-0.0007
3728.0000	0.0001	0.0002	-0.0006	-0.0003	-0.0002	-0.0002	-0.0002	-0.0098	0.0017	0.0019	-0.0005	0.0600	-0.0005	-0.0002	-0.0029	-0.0007
3736.0000	0.0000	0.0002	-0.0006	-0.0002	-0.0002	-0.0002	-0.0002	-0.0193	0.0016	0.0021	-0.0006	0.0561	-0.0005	-0.0001	-0.0028	-0.0007
3744.0000	-0.0001	0.0002	-0.0005	-0.0002	-0.0002	-0.0002	-0.0002	-0.0289	0.0015	0.0023	-0.0006	0.0536	-0.0004	-0.0001	-0.0026	-0.0008
3752.0000	-0.0003	0.0002	-0.0005	-0.0002	-0.0001	-0.0001	-0.0001	-0.0335	0.0014	0.0024	-0.0006	0.0522	-0.0004	0.0000	-0.0024	-0.0008
3760.0000	-0.0005	0.0002	-0.0004	-0.0001	-0.0001	-0.0001	-0.0001	-0.0341	0.0012	0.0026	-0.0007	0.0516	-0.0004	0.0000	-0.0022	-0.0009
3768.0000	-0.0007	0.0003	-0.0004	-0.0002	-0.0001	-0.0001	-0.0001	-0.0343	0.0009	0.0028	-0.0007	0.0522	-0.0003	0.0001	-0.0020	-0.0009
3776.0000	-0.0009	0.0003	-0.0005	-0.0002	-0.0002	-0.0002	-0.0002	-0.0349	0.0006	0.0030	-0.0007	0.0534	-0.0004	0.0002	-0.0018	-0.0009
3784.0000	-0.0011	0.0004	-0.0005	-0.0003	-0.0003	-0.0003	-0.0003	-0.0346	0.0004	0.0032	-0.0007	0.0545	-0.0004	0.0003	-0.0016	-0.0009
3792.0000	-0.0013	0.0003	-0.0005	-0.0003	-0.0003	-0.0003	-0.0003	-0.0342	0.0001	0.0034	-0.0007	0.0553	-0.0004	0.0004	-0.0013	-0.0009
3800.0000	-0.0016	0.0001	-0.0004	-0.0003	-0.0003	-0.0003	-0.0002	-0.0342	-0.0003	0.0036	-0.0007	0.0559	-0.0004	0.0004	-0.0012	-0.0009
3808.0000	-0.0019	-0.0001	-0.0003	-0.0002	-0.0002	-0.0002	-0.0002	-0.0339	-0.0007	0.0037	-0.0008	0.0559	-0.0003	0.0004	-0.0012	-0.0010
3816.0000	-0.0021	-0.0002	-0.0003	-0.0002	-0.0002	-0.0002	-0.0001	-0.0340	-0.0010	0.0039	-0.0009	0.0549	-0.0002	0.0003	-0.0011	-0.0010
3824.0000	-0.0022	-0.0001	-0.0003	-0.0002	-0.0002	-0.0002	-0.0002	-0.0365	-0.0013	0.0040	-0.0009	0.0534	-0.0002	0.0004	-0.0009	-0.0009
3832.0000	-0.0023	0.0000	-0.0003	-0.0002	-0.0002	-0.0002	-0.0002	-0.0403	-0.0016	0.0042	-0.0008	0.0519	-0.0003	0.0004	-0.0009	-0.0008
3840.0000	-0.0025	0.0001	-0.0002	-0.0001	-0.0001	-0.0001	-0.0001	-0.0412	-0.0018	0.0042	-0.0009	0.0501	-0.0002	0.0004	-0.0008	-0.0007
3848.0000	-0.0025	0.0002	-0.0001	-0.0000	-0.0000	-0.0000	-0.0000	-0.0373	-0.0021	0.0043	-0.0009	0.0482	-0.0001	0.0004	-0.0008	-0.0007
3856.0000	-0.0026	0.0003	-0.0001	-0.0000	-0.0000	-0.0000	-0.0000	-0.0317	-0.0023	0.0043	-0.0009	0.0468	-0.0001	0.0004	-0.0007	-0.0006
3864.0000	-0.0026	0.0005	-0.0001	-0.0000	-0.0000	-0.0000	-0.0000	-0.0277	-0.0024	0.0043	-0.0009	0.0455	-0.0001	0.0005	-0.0006	-0.0005
3872.0000	-0.0026	0.0007	-0.0001	-0.0000	-0.0000	-0.0000	-0.0000	-0.0255	-0.0026	0.0043	-0.0009	0.0436	-0.0000	0.0006	-0.0004	-0.0004
3880.0000	-0.0027	0.0008	-0.0000	0.0000	0.0000	0.0000	0.0000	-0.0238	-0.0028	0.0043	-0.0010	0.0413	-0.0000	0.0005	-0.0003	-0.0004
3888.0000	-0.0026	0.0011	-0.0000	-0.0000	-0.0000	-0.0000	0.0000	-0.0223	-0.0029	0.0043	-0.0010	0.0395	-0.0000	0.0005	-0.0001	-0.0003
3896.0000	-0.0026	0.0014	-0.0000	-0.0000	-0.0000	-0.0000	0.0000	-0.0211	-0.0030	0.0042	-0.0009	0.0378	-0.0000	0.0004	0.0000	-0.0003
3904.0000	-0.0026	0.0017	0.0000	0.0000	0.0000	0.0000	0.0000	-0.0203	-0.0031	0.0042	-0.0009	0.0346	0.0000	0.0003	0.0001	-0.0003
3912.0000	-0.0025	0.0019	0.0000	0.0000	0.0000	0.0000	0.0000	-0.0196	-0.0032	0.0040	-0.0010	0.0308	0.0000	0.0001	0.0002	-0.0003
3920.0000	-0.0024	0.0020	0.0000	0.0000	0.0000	0.0000	0.0000	-0.0190	-0.0031	0.0038	-0.0009	0.0286	0.0000	0.0001	0.0002	-0.0003
3928.0000	-0.0023	0.0021	0.0000	0.0000	0.0000	0.0000	0.0000	-0.0188	-0.0032	0.0036	-0.0009	0.0279	0.0000	-0.0000	0.0002	-0.0002
3936.0000	-0.0023	0.0022	0.0000	0.0000	0.0000	0.0000	0.0001	-0.0184	-0.0032	0.0035	-0.0009	0.0262	0.0000	-0.0001	0.0003	-0.0001
3944.0000	-0.0022	0.0023	0.0000	0.0000	0.0000	0.0000	0.0000	-0.0174	-0.0033	0.0034	-0.0009	0.0230	0.0000	-0.0002	0.0002	-0.0000
3952.0000	-0.0022	0.0023	0.0000	0.0000	0.0000	0.0000	0.0000	-0.0161	-0.0033	0.0032	-0.0009	0.0200	0.0000	-0.0001	0.0003	0.0001
3960.0000	-0.0021	0.0023	0.0000	0.0000	0.0000	0.0000	0.0000	-0.0152	-0.0034	0.0030	-0.0008	0.0180	0.0000	-0.0001	0.0003	0.0003
3968.0000	-0.0021	0.0023	0.0000	0.0000	0.0000	0.0000	0.0000	-0.0151	-0.0034	0.0029	-0.0008	0.0160	0.0000	-0.0002	0.0003	0.0003
3976.0000	-0.0021	0.0023	0.0000	0.0000	0.0000	0.0000	0.0000	-0.0155	-0.0034	0.0028	-0.0008	0.0130	0.0000	-0.0004	0.0003	0.0003
3984.0000	-0.0021	0.0023	0.0000	0.0000	0.0000	0.0000	0.0000	-0.0160	-0.0034	0.0027	-0.0008	0.0100	0.0000	-0.0006	0.0003	0.0003
3992.0000	-0.0021	0.0023	0.0000	0.0000	0.0000	0.0000	0.0000	-0.0161	-0.0033	0.0026	-0.0009	0.0076	0.0000	-0.0006	0.0003	0.0002
4000.0000	-0.0020	0.0025	0.0000	0.0000	0.0000	0.0000	0.0000	-0.0152	-0.0033	0.0025	-0.0009	0.0052	0.0000	-0.0006	0.0002	0.0002
4008.0000	-0.0020	0.0026	0.0001	0.0001	0.0001	0.0001	0.0001	-0.0140	-0.0032	0.0025	-0.0009	0.0017	0.0000	-0.0006	0.0001	0.0003
4016.0000	-0.0019	0.0027	0.0001	0.0001	0.0001	0.0001	0.0001	-0.0140	-0.0031	0.0025	-0.0009	-0.0029	0.0001	-0.0006	0.0001	0.0003
4024.0000	-0.0019	0.0027	0.0001	0.0001	0.0001	0.0001	0.0001	-0.0163	-0.0030	0.0025	-0.0010	-0.0080	0.0001	-0.0008	-0.0000	0.0002
4032.0000	-0.0019	0.0027	0.0000	0.0000	0.0000	0.0000	0.0000	-0.0194	-0.0029	0.0025	-0.0010	-0.0126	0.0000	-0.0008	-0.0001	0.0002
4040.0000	-0.0019	0.0027	0.0000	0.0000	0.0000	0.0000	0.0000	-0.0218	-0.0029	0.0025	-0.0009	-0.0157	0.0000	-0.0008	-0.0001	0.0002
4048.0000	-0.0018	0.0027	0.0000	0.0000	0.0000	0.0000	0.0000	-0.0233	-0.0028	0.0025	-0.0009	-0.0171	0.0000	-0.0008	-0.0000	0.0002
4056.0000	-0.0017	0.0027	0.0001	0.0001	0.0001	0.0001	0.0000	-0.0246	-0.0027	0.0024	-0.0008	-0.0176	0.0001	-0.0008	0.0001	0.0003
4064.0000	-0.0016	0.0027	0.0001	0.0001	0.0001	0.0001	0.0001	-0.0261	-0.0026	0.0023	-0.0007	-0.0179	0.0001	-0.0008	0.0001	0.0003
4072.0000	-0.0016	0.0027	0.0001	0.0001	0.0001	0.0001	0.0001	-0.0279	-0.0026	0.0022	-0.0006	-0.0176	0.0001	-0.0007	0.0002	0.0003
4080.0000	-0.0015	0.0026	0.0001	0.0001	0.0001	0.0001	0.0001	-0.0302	-0.0025	0.0022	-0.0005	-0.0175	0.0001	-0.0007	0.0003	0.0004
4088.0000	-0.0014	0.0025	0.0001	0.0001	0.0001	0.0001	0.0001	-0.0330	-0.0024	0.0021	-0.0004	-0.0183	0.0001	-0.0007	0.0003	0.0004
4096.0000	-0.0013	0.0024	0.0001	0.0001	0.0001	0.0001	0.0001	-0.0361	-0.0023	0.0021	-0.0004	-0.0196	0.0001	-0.0006	0.0004	0.0004
4104.0000	-0.0012	0.0023	0.0001	0.0001	0.0001	0.0001	0.0001	-0.0397	-0.0023	0.0020	-0.0003	-0.0203	0.0001	-0.0006	0.0004	0.0004
4112.0000	-0.0011	0.0022	0.0001	0.0001	0.0001	0.0001	0.0001	-0.0432	-0.0022	0.0020	-0.0002	-0.0203	0.0001	-0.0006	0.0004	0.0004
4120.0000	-0.0011	0.0021	0.0001	0.0001	0.0001	0.0001	0.0001	-0.0456	-0.0021	0.0019	-0.0002	-0.0196	0.0001	-0.0007	0.0004	0.0004
4128.0000	-0.0010	0.0021	0.0001	0.0001	0.0001	0.0001	0.0001	-0.0459	-0.0021	0.0019	-0.0001	-0.0184	0.0001	-0.0007	0.0004	0.0004
4136.0000	-0.0009	0.0022	0.0001	0.0001	0.0001	0.0001	0.0001	-0.0450	-0.0020	0.0019	0.0000	-0.0175	0.0001	-0.0006	0.0005	0.0004
4144.0000	-0.0008	0.0021	0.0001	0.0001	0.0001	0.0001	0.0001	-0.0438	-0.0019	0.0019	0.0001	-0.0179	0.0001	-0.0006	0.0005	0.0004
4152.0000	-0.0007	0.0020	0.0001	0.0001	0.0001	0.0001	0.0001	-0.0425	-0.0019	0.0018	0.0001	-0.0188	0.0001	-0.0006	0.0005	0.0003
4160.0000	-0.0006	0.0018	0.0001	0.0001	0.0001	0.0001	0.0001	-0.0412	-0.0018	0.0018	0.0002	-0.0179	0.0001	-0.0006	0.0005	0.0003
4168.0000	-0.0005	0.0016	0.0001	0.0001	0.0001	0.0001	0.0001	-0.0400	-0.0018	0.0017	0.0003	-0.0147	0.0001	-0.0006	0.0005	0.0003
4176.0000	-0.0003	0.0015	0.0001	0.0001	0.0001	0.0001	0.0001	-0.0389	-0.0017	0.0016	0.0003	-0.0116	0.0001	-0.0006	0.0005	0.0003
4184.0000	-0.0002	0.0014	0.0001	0.0001	0.0001	0.0001	0.0001	-0.0379	-0.0016	0.0015	0.0004	-0.0099	0.0001	-0.0006	0.0005	0.0004
4192.0000	0.0000	0.0014	0.0001	0.0001	0.0001	0.0001	0.0001	-0.0369	-0.0016	0.0013	0.0004	-0.0090	0.0001	-0.0006	0.0005	0.0005
4200.0000	0.0001	0.0012	0.0002	0.0002	0.0002	0.0002	0.0002	-0.0359	-0.0015	0.0013	0.0004	-0.0077	0.0001	-0.0006	0.0005	0.0006
4208.0000	0.0001	0.0010	0.0002	0.0002	0.0002	0.0002	0.0002	-0.0348	-0.0015	0.0012	0.0005	-0.0062	0.0002	-0.0006	0.0005	0.0007
4216.0000	0.0002	0.0008	0.0002	0.0002	0.0002	0.0002	0.0002	-0.0335	-0.0014	0.0011	0.0005	-0.0053	0.0002	-0.0006	0.0005	0.0006
4224.0000	0.0002	0.0006	0.0002	0.0002	0.0002	0.0002	0.0002	-0.0322	-0.0014	0.0010	0.0005	-0.0048	0.0002	-0.0006	0.0005	0.0006
4232.0000	0.0002	0.0005	0.0001	0.0001	0.0001	0.0001	0.0001	-0.0310	-0.0013	0.0010	0.0005	-0.0040	0.0001	-0.0006	0.0004	0.0007
4240.0000	0.0003	0.0003	0.0001	0.0001	0.0001	0.0001	0.0001	-0.0298	-0.0013	0.0009	0.0005	-0.0029	0.0001	-0.0006	0.0004	0.0007
4248.0000	0.0004	0.0001	0.0001	0.0001	0.0001	0.0001	0.0001	-0.0288	-0.0012	0.0008	0.0005	-0.0015	0.0001	-0.0006	0.0004	0.0008
4256.0000	0.0006	-0.0002	0.0001	0.0001	0.0001	0.0001	0.0001	-0.0280	-0.0012	0.0007	0.0006	0.0001	0.0001	-0.0007	0.0003	0.0008
4264.0000	0.0007	-0.0005	0.0001	0.0001	0.0001	0.0001	0.0001	-0.0273	-0.0011	0.0007	0.0006	0.0020	0.0001	-0.0006	0.0003	0.0008
4272.0000	0.0008	-0.0007	0.0001	0.0001	0.0001	0.0001	0.0001	-0.0267	-0.0011	0.0007	0.0006	0.0041	0.0001	-0.0006	0.0003	0.0008
4280.0000	0.0009	-0.0007	0.0001	0.0001	0.0001	0.0001	0.0001	-0.0261	-0.0010	0.0007	0.0006	0.0058	0.0001	-0.0006	0.0003	0.0007
4288.0000	0.0010	-0.0007	0.0001	0.0001	0.0001	0.0001	0.0001	-0.0253	-0.0010	0.0006	0.0006	0.0064	0.0001	-0.0006	0.0003	0.0007
4296.0000	0.0011	-0.0007	0.0001	0.0001	0.0001	0.0001	0.0001	-0.0243	-0.0009	0.0006	0.0006	0.0062	0.0001	-0.0006	0.0004	0.0007
4304.0000	0.0011	-0.0006	0.0001	0.0001	0.0001	0.0001	0.0001	-0.0231	-0.0009	0.0006	0.0006	0.0061	0.0001	-0.0005	0.0005	0.0006
4312.0000	0.0012	-0.0006	0.0001	0.0001	0.0001	0.0001	0.0001	-0.0218	-0.0008	0.0005	0.0006	0.0065	0.0001	-0.0005	0.0006	0.0005
4320.0000	0.0012	-0.0006	0.0001	0.0001	0.0001	0.0001	0.0001	-0.0205	-0.0008	0.0003	0.0006	0.0065	0.0001	-0.0005	0.0006	0.0003
4328.0000	0.0012	-0.0006	0.0001	0.0001	0.0001	0.0001	0.0001	-0.0193	-0.0008	0.0002	0.0006	0.0058	0.0001	-0.0005	0.0006	0.0002
4336.0000	0.0011	-0.0006	0.0001	0.0001	0.0001	0.0001	0.0001	-0.0182	-0.0007	0.0001	0.0005	0.0050	0.0001	-0.0004	0.0004	0.0002
4344.0000	0.0011	-0.0006	0.0001	0.0001	0.0001	0.0001	0.0001	-0.0173	-0.0007	0.0001	0.0005	0.0044	0.0001	-0.0004	0.0001	0.0002
4352.0000	0.0011	-0.0006	0.0000	0.0000	0.0000	0.0000	0.0000	-0.0164	-0.0006	0.0001	0.0005	0.0040	0.0000	-0.0004	-0.0001	0.0004
4360.0000	0.0010	-0.0006	0.0000	0.0000	0.0000	0.0000	0.0000	-0.0157	-0.0006	0.0000	0.0005	0.0036	0.0000	-0.0004	-0.0002	0.0005
4368.0000	0.0009	-0.0006	0.0000	0.0000	0.0000	0.0000	0.0000	-0.0150	-0.0006	0.0000	0.0004	0.0031	0.0000	-0.0003	-0.0003	0.0005
4376.0000	0.0009	-0.0006	0.0000	0.0000	0.0000	0.0000	0.0000	-0.0143	-0.0005	-0.0000	0.0004	0.0023	0.0000	-0.0003	-0.0002	0.0004
4384.0000	0.0008	-0.0007	0.0000	0.0000	0.0000	0.0000	0.0000	-0.0136	-0.0005	-0.0001	0.0004	0.0015	0.0000	-0.0003	-0.0002	0.0004
4392.0000	0.0007	-0.0007	0.0000	0.0000	0.0000	0.0000	0.0000	-0.0129	-0.0005	-0.0001	0.0004	0.0012	0.0000	-0.0003	-0.0002	0.0004
4400.0000	0.0007	-0.0007	-0.0000	-0.0000	-0.0000	-0.0000	-0.0000	-0.0122	-0.0004	-0.0001	0.0003	0.0009	-0.0000	-0.0003	-0.0002	0.0004
4408.0000	0.0006	-0.0007	-0.0000	-0.0000	-0.0000	-0.0000	-0.0000	-0.0115	-0.0004	-0.0001	0.0003	0.0002	-0.0000	-0.0003	-0.0002	0.0003
4416.0000	0.0006	-0.0008	-0.0000	-0.0000	-0.0000	-0.0000	-0.0000	-0.0110	-0.0004	-0.0001	0.0003	-0.0007	-0.0000	-0.0003	-0.0002	0.0003
4424.0000	0.0005	-0.0008	-0.0000	-0.0000	-0.0000	-0.0000	-0.0000	-0.0105	-0.0004	-0.0001	0.0003	-0.0013	-0.0000	-0.0003	-0.0002	0.0003
4432.0000	0.0004	-0.0008	-0.0000	-0.0000	-0.0000	-0.0000	-0.0000	-0.0099	-0.0003	-0.0001	0.0003	-0.0017	-0.0000	-0.0003	-0.0002	0.0002
4440.0000	0.0004	-0.0008	-0.0001	-0.0001	-0.0001	-0.0001	-0.0001	-0.0093	-0.0003	-0.0001	0.0002	-0.0021	-0.0001	-0.0003	-0.0002	0.0001
4448.0000	0.0003	-0.0007	-0.0001	-0.0001	-0.0001	-0.0001	-0.0001	-0.0088	-0.0003	-0.0001	0.0002	-0.0024	-0.0001	-0.0003	-0.0003	0.0001
4456.0000	0.0003	-0.0007	-0.0001	-0.0001	-0.0001	-0.0001	-0.0001	-0.0085	-0.0002	-0.0000	0.0002	-0.0026	-0.0001	-0.0003	-0.0003	0.0000
4464.0000	0.0002	-0.0007	-0.0001	-0.0001	-0.0001	-0.0001	-0.0001	-0.0082	-0.0002	-0.0001	0.0001	-0.0031	-0.0001	-0.0003	-0.0003	0.0001
4472.0000	0.0002	-0.0007	-0.0001	-0.0001	-0.0001	-0.0001	-0.0001	-0.0079	-0.0002	-0.0001	0.0001	-0.0035	-0.0001	-0.0003	-0.0003	0.0001
4480.0000	0.0001	-0.0007	-0.0001	-0.0001	-0.0001	-0.0001	-0.0001	-0.0074	-0.0002	-0.0001	0.0001	-0.0038	-0.0001	-0.0002	-0.0003	0.0001
4488.0000	0.0001	-0.0007	-0.0001	-0.0001	-0.0001	-0.0001	-0.0001	-0.0070	-0.0001	-0.0001	0.0001	-0.0041	-0.0001	-0.0002	-0.0003	0.0002
4496.0000	0.0000	-0.0007	-0.0001	-0.0001	-0.0001	-0.0001	-0.0001	-0.0066	-0.0001	-0.0001	0.0000	-0.0046	-0.0001	-0.0002	-0.0003	0.0002
4504.0000	0.0000	-0.0007	-0.0001	-0.0001	-0.0001	-0.0001	-0.0001	-0.0062	-0.0001	-0.0001	0.0000	-0.0053	-0.0001	-0.0002	-0.0003	0.0002
4512.0000	0.0000	-0.0007	-0.0001	-0.0001	-0.0001	-0.0001	-0.0001	-0.0058	-0.0001	-0.0001	-0.0000	-0.0060	-0.0001	-0.0002	-0.0003	0.0002
4520.0000	0.0000	-0.0007	-0.0001	-0.0001	-0.0001	-0.0001	-0.0001	-0.0053	-0.0001	-0.0001	-0.0000	-0.0066	-0.0001	-0.0002	-0.0003	0.0002
4528.0000	0.0000	-0.0007	-0.0001	-0.0001	-0.0001	-0.0001	-0.0001	-0.0049	-0.0001	-0.0002	-0.0001	-0.0069	-0.0001	-0.0002	-0.0003	0.0001
4536.0000	-0.0000	-0.0007	-0.0001	-0.0001	-0.0001	-0.0001	-0.0001	-0.0045	-0.0000	-0.0002	-0.0001	-0.0073	-0.0001	-0.0002	-0.0003	0.0001
4544.0000	-0.0001	-0.0006	-0.0001	-0.0001	-0.0001	-0.0001	-0.0001	-0.0042	-0.0000	-0.0003	-0.0001	-0.0081	-0.0001	-0.0001	-0.0004	0.0001
4552.0000	-0.0001	-0.0006	-0.0001	-0.0001	-0.0001	-0.0001	-0.0001	-0.0038	-0.0000	-0.0004	-0.0002	-0.0083	-0.0001	-0.0001	-0.0007	0.0001
4560.0000	-0.0002	-0.0005	-0.0001	-0.0001	-0.0001	-0.0001	-0.0001	-0.0034	0.0000	-0.0004	-0.0002	-0.0073	-0.0001	-0.0000	-0.0011	0.0000
4568.0000	-0.0002	-0.0006	-0.0001	-0.0001	-0.0001	-0.0001	-0.0001	-0.0031	0.0000	-0.0004	-0.0002	-0.0066	-0.0001	0.0000	-0.0013	0.0000
4576.0000	-0.0002	-0.0007	-0.0001	-0.0001	-0.0001	-0.0001	-0.0001	-0.0027	0.0000	-0.0004	-0.0003	-0.0076	-0.0001	0.0000	-0.0012	-0.0000
4584.0000	-0.0002	-0.0007	-0.0001	-0.0001	-0.0001	-0.0001	-0.0001	-0.0024	0.0000	-0.0004	-0.0003	-0.0091	-0.0001	0.0001	-0.0012	-0.0001
4592.0000	-0.0001	-0.0006	-0.0001	-0.0001	-0.0001	-0.0001	-0.0001	-0.0022	0.0001	-0.0003	-0.0003	-0.0094	-0.0001	0.0002	-0.0013	-0.0001
4600.0000	-0.0001	-0.0006	-0.0001	-0.0001	-0.0001	-0.0001	-0.0001	-0.0021	0.0001	-0.0003	-0.0002	-0.0092	-0.0001	0.0002	-0.0014	-0.0001
4608.0000	-0.0000	-0.0006	-0.0001	-0.0001	-0.0001	-0.0001	-0.0001	-0.0020	0.0001	-0.0003	-0.0002	-0.0095	-0.0001	0.0002	-0.0015	-0.0001
4616.0000	0.0000	-0.0006	-0.0001	-0.0001	-0.0001	-0.0001	-0.0001	-0.0021	0.0001	-0.0003	-0.0002	-0.0099	-0.0001	0.0002	-0.0017	-0.0000
4624.0000	-0.0000	-0.0005	-0.0001	-0.0001	-0.0001	-0.0001	-0.0001	-0.0023	0.0001	-0.0003	-0.0002	-0.0102	-0.0001	0.0002	-0.0019	-0.0000
4632.0000	-0.0001	-0.0006	-0.0000	-0.0000	-0.0000	-0.0000	-0.0000	-0.0026	0.0001	-0.0004	-0.0002	-0.0109	-0.0001	0.0002	-0.0019	-0.0000
4640.0000	-0.0001	-0.0007	-0.0000	-0.0000	-0.0000	-0.0000	-0.0000	-0.0029	0.0001	-0.0004	-0.0004	-0.0117	-0.0000	0.0001	-0.0020	0.0000
4648.0000	-0.0001	-0.0007	-0.0000	-0.0000	-0.0000	-0.0000	-0.0000	-0.0031	0.0001	-0.0005	-0.0004	-0.0114	-0.0000	0.0000	-0.0021	0.0001
4656.0000	-0.0001	-0.0008	-0.0000	-0.0000	-0.0000	-0.0000	-0.0000	-0.0034	0.0001	-0.0005	-0.0004	-0.0109	-0.0000	0.0000	-0.0021	0.0002
4664.0000	-0.0001	-0.0009	0.0000	0.0000	0.0000	0.0000	0.0000	-0.0036	0.0001	-0.0005	-0.0005	-0.0115	0.0000	-0.0001	-0.0021	0.0002
4672.0000	-0.0001	-0.0010	0.0000	0.0000	0.0000	0.0000	0.0000	-0.0036	0.0001	-0.0006	-0.0006	-0.0124	0.0000	-0.0002	-0.0022	0.0001
4680.0000	0.0000	-0.0007	0.0000	0.0000	0.0000	0.0000	0.0000	-0.0035	0.0001	-0.0006	-0.0005	-0.0117	0.0000	-0.0001	-0.0022	0.0001
4688.0000	0.0002	-0.0005	0.0000	0.0000	0.0000	0.0000	0.0000	-0.0033	0.0001	-0.0004	-0.0003	-0.0101	0.0000	0.0001	-0.0021	0.0001
4696.0000	0.0003	-0.0004	0.0000	0.0000	0.0000	0.0000	0.0000	-0.0032	0.0001	-0.0002	-0.0002	-0.0093	0.0000	0.0002	-0.0022	0.0001
4704.0000	0.0003	-0.0003	0.0000	0.0000	0.0000	0.0000	0.0000	-0.0031	0.0001	-0.0003	-0.0002	-0.0097	0.0000	0.0002	-0.0022	0.0001
4712.0000	0.0004	-0.0002	0.0000	0.0000	0.0000	0.0000	0.0000	-0.0032	0.0001	-0.0003	-0.0003	-0.0112	0.0000	0.0004	-0.0018	-0.0000
4720.0000	0.0004	-0.0001	0.0000	0.0000	0.0000	0.0000	0.0000	-0.0033	0.0001	-0.0003	-0.0003	-0.0136	0.0000	0.0006	-0.0010	-0.0001
4728.0000	0.0005	-0.0000	0.0000	0.0000	0.0000	0.0000	0.0000	-0.0031	0.0001	-0.0002	-0.0002	-0.0152	0.0000	0.0007	-0.0007	-0.0001
4736.0000	0.0005	-0.0000	0.0001	0.0001	0.0001	0.0001	0.0000	-0.0030	0.0001	-0.0002	-0.0002	-0.0150	0.0001	0.0006	-0.0009	-0.0001
4744.0000	0.0004	0.0000	0.0001	0.0001	0.0001	0.0001	0.0001	-0.0030	0.0002	-0.0002	-0.0002	-0.0143	0.0001	0.0006	-0.0005	-0.0002
4752.0000	0.0003	0.0001	0.0001	0.0001	0.0001	0.0001	0.0001	-0.0032	0.0001	-0.0002	-0.0002	-0.0147	0.0001	0.0006	0.0007	-0.0003
4760.0000	0.0001	0.0001	0.0001	0.0001	0.0001	0.0001	0.0001	-0.0033	0.0001	-0.0002	-0.0002	-0.0157	0.0001	0.0006	0.0020	-0.0005
4768.0000	0.0001	0.0001	0.0001	0.0001	0.0001	0.0001	0.0001	-0.0031	0.0001	-0.0003	-0.0003	-0.0158	0.0001	0.0006	0.0026	-0.0007
4776.0000	-0.0000	0.0001	0.0001	0.0001	0.0001	0.0001	0.0001	-0.0028	0.0001	-0.0003	-0.0003	-0.0155	0.0001	0.0006	0.0029	-0.0008
4784.0000	-0.0001	0.0001	0.0001	0.0001	0.0001	0.0001	0.0001	-0.0026	0.0001	-0.0002	-0.0003	-0.0155	0.0001	0.0006	0.0033	-0.0008
4792.0000	-0.0003	0.0001	0.0001	0.0001	0.0001	0.0001	0.0001	-0.0023	0.0001	-0.0002	-0.0003	-0.0153	0.0001	0.0006	0.0039	-0.0008
4800.0000	-0.0004	0.0001	0.0001	0.0001	0.0001	0.0001	0.0001	-0.0021	0.0001	-0.0002	-0.0003	-0.0147	0.0001	0.0006	0.0044	-0.0008
4808.0000	-0.0005	0.0001	0.0001	0.0001	0.0001	0.0001	0.0001	-0.0018	0.0001	-0.0001	-0.0003	-0.0143	0.0001	0.0006	0.0048	-0.0009
4816.0000	-0.0006	0.0001	0.0000	0.0000	0.0000	0.0000	0.0000	-0.0015	0.0001	-0.0001	-0.0003	-0.0143	0.0000	0.0006	0.0050	-0.0009
4824.0000	-0.0007	0.0001	0.0000	0.0000	0.0000	0.0000	0.0000	-0.0013	0.0001	-0.0000	-0.0003	-0.0139	0.0000	0.0006	0.0050	-0.0009
4832.0000	-0.0008	0.0001	0.0000	0.0000	0.0000	0.0000	0.0000	-0.0010	0.0001	-0.0000	-0.0003	-0.0134	0.0000	0.0006	0.0050	-0.0008
4840.0000	-0.0009	0.0001	-0.0000	-0.0000	-0.0000	-0.0000	-0.0000	-0.0007	0.0001	-0.0000	-0.0003	-0.0131	0.0000	0.0005	0.0051	-0.0007
4848.0000	-0.0010	0.0001	-0.0000	-0.0000	-0.0000	-0.0000	-0.0000	-0.0003	0.0001	-0.0000	-0.0003	-0.0129	-0.0000	0.0005	0.0049	-0.0007
4856.0000	-0.0010	0.0000	-0.0000	-0.0000	-0.0000	-0.0000	-0.0000	0.0003	0.0001	-0.0000	-0.0004	-0.0124	-0.0000	0.0005	0.0048	-0.0006
4864.0000	-0.0011	0.0000	-0.0000	-0.0000	-0.0000	-0.0000	-0.0000	0.0008	0.0001	-0.0001	-0.0004	-0.0121	-0.0000	0.0004	0.0047	-0.0006
4872.0000	-0.0011	0.0000	-0.0001	-0.0001	-0.0001	-0.0001	-0.0001	0.0012	0.0001	-0.0001	-0.0004	-0.0120	-0.0001	0.0004	0.0046	-0.0005
4880.0000	-0.0012	0.0000	-0.0001	-0.0001	-0.0001	-0.0001	-0.0001	0.0015	0.0001	-0.0001	-0.0004	-0.0117	-0.0001	0.0004	0.0045	-0.0005
4888.0000	-0.0013	0.0001	-0.0001	-0.0001	-0.0001	-0.0001	-0.0001	0.0015	0.0001	-0.0001	-0.0004	-0.0113	-0.0001	0.0004	0.0045	-0.0005
4896.0000	-0.0013	0.0001	-0.0001	-0.0001	-0.0001	-0.0001	-0.0001	0.0015	0.0001	-0.0002	-0.0004	-0.0111	-0.0001	0.0004	0.0045	-0.0005
4904.0000	-0.0013	0.0002	-0.0001	-0.0001	-0.0001	-0.0001	-0.0001	0.0014	0.0001	-0.0002	-0.0004	-0.0109	-0.0001	0.0004	0.0043	-0.0004
4912.0000	-0.0014	0.0001	-0.0001	-0.0001	-0.0001	-0.0001	-0.0001	0.0013	0.0001	-0.0002	-0.0004	-0.0105	-0.0001	0.0004	0.0042	-0.0004
4920.0000	-0.0014	0.0001	-0.0001	-0.0001	-0.0001	-0.0001	-0.0001	0.0012	0.0001	-0.0003	-0.0004	-0.0102	-0.0001	0.0004	0.0041	-0.0004
4928.0000	-0.0015	0.0001	-0.0001	-0.0001	-0.0001	-0.0001	-0.0001	0.0012	0.0001	-0.0003	-0.0004	-0.0101	-0.0001	0.0004	0.0039	-0.0003
4936.0000	-0.0015	0.0002	-0.0001	-0.0001	-0.0001	-0.0001	-0.0001	0.0016	0.0001	-0.0003	-0.0004	-0.0098	-0.0001	0.0004	0.0037	-0.0003
4944.0000	-0.0015	0.0002	-0.0001	-0.0001	-0.0001	-0.0001	-0.0001	0.0020	0.0001	-0.0003	-0.0004	-0.0094	-0.0001	0.0004	0.0037	-0.0004
4952.0000	-0.0015	0.0002	-0.0001	-0.0001	-0.0001	-0.0001	-0.0001	0.0023	0.0000	-0.0004	-0.0004	-0.0092	-0.0001	0.0004	0.0033	-0.0005
4960.0000	-0.0015	0.0002	-0.0001	-0.0001	-0.0001	-0.0001	-0.0001	0.0026	0.0000	-0.0004	-0.0004	-0.0090	-0.0001	0.0004	0.0016	-0.0004
4968.0000	-0.0014	0.0001	-0.0001	-0.0001	-0.0001	-0.0001	-0.0001	0.0027	0.0000	-0.0005	-0.0003	-0.0086	-0.0001	0.0004	-0.0010	-0.0005
4976.0000	-0.0014	0.0000	-0.0001	-0.0001	-0.0001	-0.0001	-0.0001	0.0027	0.0000	-0.0006	-0.0003	-0.0083	-0.0001	0.0003	-0.0029	-0.0006
4984.0000	-0.0013	-0.0000	-0.0001	-0.0001	-0.0001	-0.0001	-0.0001	0.0025	0.0000	-0.0006	-0.0003	-0.0082	-0.0001	0.0002	-0.0035	-0.0006
4992.0000	-0.0012	0.0001	-0.0001	-0.0001	-0.0001	-0.0001	-0.0001	0.0024	0.0000	-0.0006	-0.0003	-0.0080	-0.0001	0.0002	-0.0035	-0.0007
5000.0000	-0.0011	0.0001	-0.0001	-0.0001	-0.0001	-0.0001	-0.0001	0.0024	-0.0000	-0.0005	-0.0002	-0.0077	-0.0001	0.0003	-0.0035	-0.0007
5008.0000	-0.0011	0.0001	-0.0000	-0.0000	-0.0000	-0.0000	-0.0000	0.0024	-0.0000	-0.0005	-0.0002	-0.0075	-0.0001	0.0003	-0.0035	-0.0007
5016.0000	-0.0010	0.0001	-0.0000	-0.0000	-0.0000	-0.0000	-0.0000	0.0023	-0.0000	-0.0005	-0.0002	-0.0073	-0.0000	0.0002	-0.0032	-0.0008
5024.0000	-0.0009	0.0002	0.0000	0.0000	0.0000	0.0000	0.0000	0.0023	-0.0000	-0.0005	-0.0001	-0.0070	-0.0000	0.0002	-0.0029	-0.0007
5032.0000	-0.0008	0.0002	0.0000	0.0000	0.0000	0.0000	0.0000	0.0024	-0.0000	-0.0005	-0.0001	-0.0068	0.0000	0.0002	-0.0027	-0.0007
5040.0000	-0.0007	0.0003	0.0001	0.0001	0.0001	0.0001	0.0001	0.0024	-0.0001	-0.0004	-0.0001	-0.0066	0.0001	0.0002	-0.0026	-0.0007
5048.0000	-0.0006	0.0003	0.0001	0.0001	0.0001	0.0001	0.0001	0.0024	-0.0001	-0.0003	-0.0000	-0.0064	0.0001	0.0003	-0.0026	-0.0006
5056.0000	-0.0006	0.0003	0.0001	0.0001	0.0001	0.0001	0.0001	0.0024	-0.0001	-0.0003	0.0000	-0.0061	0.0001	0.0003	-0.0026	-0.0006
5064.0000	-0.0005	0.0003	0.0001	0.0001	0.0001	0.0001	0.0001	0.0025	-0.0001	-0.0002	0.0001	-0.0060	0.0001	0.0003	-0.0026	-0.0005
5072.0000	-0.0004	0.0002	0.0001	0.0001	0.0001	0.0001	0.0001	0.0026	-0.0001	-0.0002	0.0001	-0.0057	0.0001	0.0003	-0.0026	-0.0005
5080.0000	-0.0004	0.0001	0.0001	0.0001	0.0001	0.0001	0.0001	0.0026	-0.0001	-0.0002	0.0001	-0.0052	0.0001	0.0003	-0.0028	-0.0005
5088.0000	-0.0003	0.0001	0.0001	0.0001	0.0001	0.0001	0.0001	0.0026	-0.0001	-0.0002	0.0002	-0.0048	0.0001	0.0004	-0.0031	-0.0005
5096.0000	-0.0003	0.0000	0.0001	0.0001	0.0001	0.0001	0.0001	0.0025	-0.0001	-0.0002	0.0002	-0.0044	0.0001	0.0004	-0.0033	-0.0005
5104.0000	-0.0003	-0.0001	0.0001	0.0001	0.0001	0.0001	0.0001	0.0024	-0.0001	-0.0002	0.0002	-0.0036	0.0001	0.0004	-0.0034	-0.0005
5112.0000	-0.0002	-0.0001	0.0001	0.0001	0.0001	0.0001	0.0001	0.0023	-0.0002	-0.0003	0.0002	-0.0029	0.0001	0.0004	-0.0035	-0.0005
5120.0000	-0.0002	-0.0003	0.0001	0.0001	0.0001	0.0001	0.0001	0.0023	-0.0002	-0.0004	0.0002	-0.0023	0.0001	0.0005	-0.0034	-0.0005
5128.0000	-0.0002	-0.0003	0.0001	0.0001	0.0001	0.0001	0.0001	0.0023	-0.0002	-0.0005	0.0001	-0.0006	0.0001	0.0005	-0.0033	-0.0006
5136.0000	-0.0002	-0.0004	0.0001	0.0001	0.0001	0.0001	0.0001	0.0024	-0.0002	-0.0006	0.0001	0.0027	0.0001	0.0003	-0.0031	-0.0006
5144.0000	-0.0002	-0.0004	0.0002	0.0002	0.0002	0.0002	0.0002	0.0025	-0.0002	-0.0007	0.0001	0.0056	0.0002	0.0001	-0.0028	-0.0006
5152.0000	-0.0002	-0.0004	0.0002	0.0002	0.0002	0.0002	0.0002	0.0027	-0.0002	-0.0008	0.0001	0.0064	0.0002	-0.0000	-0.0024	-0.0006
5160.0000	-0.0002	-0.0003	0.0002	0.0002	0.0002	0.0002	0.0002	0.0028	-0.0002	-0.0008	0.0000	0.0056	0.0002	-0.0001	-0.0020	-0.0004
5168.0000	-0.0002	-0.0003	0.0002	0.0002	0.0002	0.0002	0.0002	0.0029	-0.0002	-0.0008	0.0000	0.0046	0.0002	-0.0001	-0.0018	-0.0002
5176.0000	-0.0001	-0.0003	0.0002	0.0002	0.0002	0.0002	0.0002	0.0030	-0.0003	-0.0008	0.0000	0.0035	0.0002	-0.0001	-0.0017	0.0000
5184.0000	-0.0001	-0.0004	0.0001	0.0001	0.0001	0.0001	0.0001	0.0029	-0.0003	-0.0008	0.0000	0.0019	0.0002	-0.0000	-0.0016	0.0001
5192.0000	-0.0001	-0.0004	0.0001	0.0001	0.0001	0.0001	0.0001	0.0028	-0.0003	-0.0008	0.0000	0.0007	0.0001	-0.0000	-0.0015	0.0001
5200.0000	-0.0001	-0.0004	0.0001	0.0001	0.0001	0.0001	0.0001	0.0028	-0.0003	-0.0008	-0.0000	0.0009	0.0001	-0.0000	-0.0013	0.0001
5208.0000	-0.0001	-0.0005	0.0001	0.0001	0.0001	0.0001	0.0001	0.0029	-0.0003	-0.0008	-0.0000	0.0028	0.0001	-0.0001	-0.0011	0.0001
5216.0000	-0.0000	-0.0005	0.0001	0.0001	0.0001	0.0001	0.0001	0.0029	-0.0003	-0.0007	-0.0001	0.0053	0.0001	-0.0002	-0.0010	0.0001
5224.0000	-0.0000	-0.0005	0.0001	0.0001	0.0001	0.0001	0.0001	0.0028	-0.0003	-0.0007	-0.0001	0.0069	0.0001	-0.0002	-0.0009	0.0000
5232.0000	-0.0000	-0.0005	0.0001	0.0001	0.0001	0.0001	0.0001	0.0028	-0.0003	-0.0006	-0.0001	0.0068	0.0001	-0.0003	-0.0007	-0.0000
5240.0000	-0.0000	-0.0005	0.0001	0.0001	0.0001	0.0001	0.0001	0.0028	-0.0004	-0.0006	-0.0001	0.0057	0.0001	-0.0003	-0.0005	-0.0000
5248.0000	0.0000	-0.0005	0.0001	0.0001	0.0001	0.0001	0.0001	0.0029	-0.0004	-0.0006	-0.0001	0.0049	0.0001	-0.0003	-0.0004	-0.0000
5256.0000	0.0000	-0.0005	0.0001	0.0001	0.0001	0.0001	0.0001	0.0030	-0.0004	-0.0005	-0.0002	0.0046	0.0001	-0.0003	-0.0004	-0.0000
5264.0000	0.0000	-0.0005	0.0001	0.0001	0.0001	0.0001	0.0001	0.0030	-0.0004	-0.0005	-0.0002	0.0043	0.0001	-0.0003	-0.0004	-0.0000
5272.0000	0.0001	-0.0005	0.0001	0.0001	0.0001	0.0001	0.0001	0.0030	-0.0004	-0.0005	-0.0002	0.0038	0.0001	-0.0004	-0.0004	-0.0000
5280.0000	0.0001	-0.0005	0.0001	0.0001	0.0001	0.0001	0.0001	0.0030	-0.0004	-0.0004	-0.0002	0.0036	0.0001	-0.0004	-0.0005	0.0000
5288.0000	0.0002	-0.0005	0.0001	0.0001	0.0001	0.0001	0.0001	0.0028	-0.0004	-0.0005	-0.0002	0.0035	0.0001	-0.0004	-0.0007	0.0000
5296.0000	0.0002	-0.0005	0.0001	0.0001	0.0001	0.0001	0.0001	0.0027	-0.0005	-0.0005	-0.0002	0.0030	0.0001	-0.0003	-0.0008	-0.0000
5304.0000	0.0002	-0.0005	0.0001	0.0001	0.0001	0.0001	0.0001	0.0025	-0.0005	-0.0006	-0.0002	0.0023	0.0001	-0.0004	-0.0008	-0.0000
5312.0000	0.0003	-0.0005	0.0001	0.0001	0.0001	0.0001	0.0001	0.0023	-0.0005	-0.0006	-0.0002	0.0017	0.0001	-0.0003	-0.0009	-0.0000
5320.0000	0.0003	-0.0005	0.0001	0.0001	0.0001	0.0001	0.0001	0.0021	-0.0005	-0.0006	-0.0001	0.0012	0.0001	-0.0003	-0.0011	-0.0000
5328.0000	0.0004	-0.0004	0.0001	0.0001	0.0001	0.0001	0.0001	0.0018	-0.0005	-0.0006	-0.0001	0.0010	0.0001	-0.0003	-0.0011	-0.0000
5336.0000	0.0004	-0.0003	0.0001	0.0001	0.0001	0.0001	0.0001	0.0014	-0.0005	-0.0004	-0.0001	0.0014	0.0001	-0.0003	-0.0012	-0.0000
5344.0000	0.0004	-0.0003	0.0001	0.0001	0.0001	0.0001	0.0001	0.0010	-0.0005	-0.0003	-0.0000	0.0022	0.0001	-0.0003	-0.0012	-0.0000
5352.0000	0.0004	-0.0002	0.0001	0.0001	0.0001	0.0001	0.0001	0.0005	-0.0006	-0.0001	0.0000	0.0028	0.0001	-0.0003	-0.0011	-0.0000
5360.0000	0.0004	-0.0001	0.0001	0.0001	0.0001	0.0001	0.0001	0.0002	-0.0004	-0.0001	0.0001	0.0030	0.0001	-0.0003	-0.0007	-0.0000
5368.0000	0.0004	-0.0000	0.0001	0.0001	0.0001	0.0001	0.0001	0.0000	-0.0001	-0.0001	0.0002	0.0032	0.0001	-0.0003	-0.0003	-0.0000
5376.0000	0.0004	0.0000	0.0001	0.0001	0.0001	0.0001	0.0001	-0.0001	0.0001	-0.0000	0.0002	0.0033	0.0001	-0.0003	-0.0001	-0.0000
5384.0000	0.0004	0.0001	0.0001	0.0001	0.0001	0.0001	0.0001	-0.0002	0.0002	-0.0000	0.0002	0.0032	0.0001	-0.0002	-0.0000	-0.0000
5392.0000	0.0004	0.0002	0.0001	0.0001	0.0001	0.0001	0.0001	-0.0003	0.0002	-0.0000	0.0002	0.0030	0.0001	-0.0002	-0.0000	0.0000
5400.0000	0.0005	0.0002	0.0001	0.0001	0.0001	0.0001	0.0001	-0.0003	0.0001	0.0000	0.0002	0.0031	0.0001	-0.0002	0.0001	0.0000
5408.0000	0.0005	0.0002	0.0001	0.0001	0.0001	0.0001	0.0001	-0.0003	0.0001	0.0000	0.0002	0.0032	0.0001	-0.0002	0.0001	0.0000
5416.0000	0.0005	0.0003	0.0001	0.0001	0.0001	0.0001	0.0001	-0.0004	0.0001	0.0000	0.0002	0.0032	0.0001	-0.0002	0.0001	0.0000
5424.0000	0.0005	0.0003	0.0001	0.0001	0.0001	0.0001	0.0001	-0.0005	0.0001	-0.0000	0.0002	0.0032	0.0001	-0.0002	0.0004	0.0001
5432.0000	0.0005	0.0003	0.0001	0.0001	0.0001	0.0001	0.0001	-0.0005	0.0001	-0.0000	0.0002	0.0034	0.0001	-0.0001	0.0007	0.0001
5440.0000	0.0005	0.0003	0.0001	0.0001	0.0001	0.0001	0.0001	-0.0006	0.0001	-0.0000	0.0002	0.0035	0.0001	-0.0001	0.0008	0.0001
5448.0000	0.0005	0.0003	0.0001	0.0001	0.0001	0.0001	0.0001	-0.0006	0.0001	0.0001	0.0002	0.0036	0.0001	-0.0001	0.0007	0.0001
5456.0000	0.0005	0.0003	0.0000	0.0000	0.0000	0.0000	0.0000	-0.0006	0.0000	0.0001	0.0002	0.0037	0.0000	-0.0001	0.0006	0.0001
5464.0000	0.0005	0.0003	0.0001	0.0001	0.0001	0.0001	0.0001	-0.0006	0.0000	0.0001	0.0002	0.0039	0.0000	-0.0001	0.0006	0.0002
5472.0000	0.0005	0.0003	0.0000	0.0000	0.0000	0.0000	0.0000	-0.0006	0.0000	0.0001	0.0002	0.0039	0.0001	-0.0001	0.0006	0.0002
5480.0000	0.0005	0.0004	0.0000	0.0000	0.0000	0.0000	0.0000	-0.0007	0.0000	0.0002	0.0002	0.0037	0.0000	-0.0001	0.0006	0.0002
5488.0000	0.0005	0.0004	0.0000	0.0000	0.0000	0.0000	0.0000	-0.0007	0.0001	0.0002	0.0002	0.0033	0.0000	-0.0001	0.0007	0.0002
5496.0000	0.0005	0.0003	0.0000	0.0000	0.0000	0.0000	0.0000	-0.0007	0.0001	0.0002	0.0002	0.0032	0.0000	-0.0001	0.0007	0.0002
5504.0000	0.0005	0.0003	0.0000	0.0000	0.0000	0.0000	0.0000	-0.0008	0.0001	0.0002	0.0001	0.0033	0.0000	-0.0001	0.0006	0.0003
5512.0000	0.0005	0.0003	0.0000	0.0000	0.0000	0.0000	0.0000	-0.0009	0.0001	0.0002	0.0001	0.0034	0.0000	-0.0001	0.0005	0.0003
5520.0000	0.0006	0.0003	0.0000	0.0000	0.0000	0.0000	0.0000	-0.0010	0.0001	0.0002	0.0001	0.0034	0.0000	-0.0001	0.0004	0.0003
5528.0000	0.0006	0.0003	0.0000	0.0000	0.0000	0.0000	0.0000	-0.0011	0.0001	0.0002	0.0000	0.0034	0.0000	-0.0000	0.0003	0.0003
5536.0000	0.0006	0.0004	0.0000	0.0000	0.0000	0.0000	0.0000	-0.0012	0.0001	0.0002	0.0000	0.0034	0.0000	-0.0000	0.0002	0.0003
5544.0000	0.0007	0.0004	0.0000	0.0000	0.0000	0.0000	0.0000	-0.0012	0.0001	0.0002	-0.0000	0.0033	0.0000	0.0000	0.0001	0.0003
5552.0000	0.0007	0.0003	0.0000	0.0000	0.0000	0.0000	0.0000	-0.0011	0.0001	0.0002	-0.0000	0.0030	0.0000	0.0000	0.0000	0.0004
5560.0000	0.0007	0.0003	0.0000	0.0000	0.0000	0.0000	0.0000	-0.0010	0.0000	0.0002	-0.0000	0.0027	0.0000	0.0001	-0.0000	0.0004
5568.0000	0.0007	0.0002	0.0000	0.0000	0.0000	0.0000	0.0000	-0.0009	-0.0000	0.0001	-0.0000	0.0022	0.0000	0.0001	-0.0001	0.0004
5576.0000	0.0006	0.0002	-0.0000	-0.0000	-0.0000	-0.0000	-0.0000	-0.0007	-0.0001	0.0001	-0.0001	0.0016	0.0000	0.0001	-0.0001	0.0004
5584.0000	0.0006	0.0001	-0.0000	-0.0000	-0.0000	-0.0000	-0.0000	-0.0004	-0.0001	0.0001	-0.0001	0.0010	-0.0000	0.0001	-0.0001	0.0004
5592.0000	0.0006	0.0001	-0.0000	-0.0000	-0.0000	-0.0000	-0.0000	-0.0001	-0.0002	0.0000	-0.0002	0.0005	-0.0000	0.0001	-0.0001	0.0004
5600.0000	0.0006	-0.0000	-0.0000	-0.0000	-0.0000	-0.0000	-0.0000	0.0002	-0.0002	-0.0000	-0.0002	0.0001	-0.0000	0.0001	-0.0001	0.0004
5608.0000	0.0006	-0.0001	-0.0000	-0.0000	-0.0000	-0.0000	-0.0000	0.0005	-0.0003	-0.0000	-0.0002	-0.0003	-0.0000	0.0001	-0.0002	0.0004
5616.0000	0.0005	-0.0001	-0.0000	-0.0000	-0.0000	-0.0000	-0.0000	0.0008	-0.0003	-0.0000	-0.0003	-0.0004	-0.0000	0.0001	-0.0002	0.0004
5624.0000	0.0005	-0.0001	-0.0000	-0.0000	-0.0000	-0.0000	-0.0000	0.0010	-0.0004	-0.0000	-0.0003	-0.0005	-0.0000	0.0001	-0.0003	0.0004
5632.0000	0.0005	-0.0002	-0.0000	-0.0000	-0.0000	-0.0000	-0.0000	0.0012	-0.0004	-0.0000	-0.0004	-0.0005	-0.0000	0.0000	-0.0004	0.0004
5640.0000	0.0005	-0.0002	-0.0000	-0.0000	-0.0000	-0.0000	-0.0000	0.0013	-0.0004	0.0000	-0.0004	-0.0005	-0.0000	0.0000	-0.0004	0.0004
5648.0000	0.0005	-0.0002	-0.0000	-0.0000	-0.0000	-0.0000	-0.0000	0.0013	-0.0004	0.0001	-0.0005	-0.0006	-0.0000	0.0001	-0.0004	0.0004
5656.0000	0.0004	-0.0001	-0.0000	-0.0000	-0.0000	-0.0000	-0.0000	0.0012	-0.0003	0.0001	-0.0005	-0.0006	-0.0000	0.0001	-0.0004	0.0004
5664.0000	0.0003	-0.0001	-0.0000	-0.0000	-0.0000	-0.0000	-0.0000	0.0011	-0.0002	0.0000	-0.0005	-0.0007	-0.0000	0.0001	-0.0004	0.0004
5672.0000	0.0002	-0.0001	-0.0000	-0.0000	-0.0000	-0.0000	-0.0000	0.0010	-0.0001	0.0000	-0.0006	-0.0007	-0.0000	0.0002	-0.0002	0.0004
5680.0000	0.0002	-0.0000	-0.0000	-0.0000	-0.0000	-0.0000	-0.0000	0.0009	-0.0001	0.0000	-0.0006	-0.0007	-0.0000	0.0002	-0.0001	0.0004
5688.0000	0.0001	-0.0000	-0.0000	-0.0000	-0.0000	-0.0000	-0.0000	0.0008	-0.0001	-0.0000	-0.0006	-0.0007	-0.0000	0.0002	-0.0000	0.0004
5696.0000	0.0001	-0.0000	-0.0000	-0.0000	-0.0000	-0.0000	-0.0000	0.0008	-0.0000	-0.0000	-0.0006	-0.0007	-0.0000	0.0002	0.0000	0.0004
5704.0000	0.0000	0.0000	-0.0000	-0.0000	-0.0000	-0.0000	-0.0000	0.0008	0.0001	-0.0000	-0.0006	-0.0007	-0.0000	0.0002	0.0002	0.0004
5712.0000	0.0000	0.0000	-0.0000	-0.0000	-0.0000	-0.0000	-0.0000	0.0008	0.0002	-0.0000	-0.0007	-0.0008	-0.0000	0.0002	0.0003	0.0004
5720.0000	0.0000	0.0000	-0.0000	-0.0000	-0.0000	-0.0000	-0.0000	0.0008	0.0002	-0.0001	-0.0007	-0.0008	-0.0000	0.0002	0.0002	0.0004
5728.0000	0.0000	0.0001	-0.0000	-0.0000	-0.0000	-0.0000	-0.0000	0.0008	0.0002	-0.0001	-0.0007	-0.0008	-0.0000	0.0002	0.0001	0.0004
5736.0000	-0.0001	0.0001	-0.0000	-0.0000	-0.0000	-0.0000	-0.0000	0.0008	0.0003	-0.0001	-0.0007	-0.0009	-0.0000	0.0002	0.0001	0.0004
5744.0000	-0.0001	0.0001	-0.0000	-0.0000	-0.0000	-0.0000	-0.0000	0.0007	0.0003	-0.0001	-0.0007	-0.0009	-0.0000	0.0002	0.0001	0.0004
5752.0000	-0.0001	0.0001	-0.0000	-0.0000	-0.0000	-0.0000	-0.0000	0.0007	0.0003	-0.0002	-0.0007	-0.0009	-0.0000	0.0002	0.0001	0.0004
5760.0000	-0.0001	0.0001	-0.0000	-0.0000	-0.0000	-0.0000	-0.0000	0.0007	0.0003	-0.0002	-0.0007	-0.0009	-0.0000	0.0003	0.0001	0.0004
5768.0000	-0.0001	0.0001	-0.0000	-0.0000	-0.0000	-0.0000	-0.0000	0.0007	0.0004	-0.0002	-0.0006	-0.0009	-0.0000	0.0003	0.0000	0.0003
5776.0000	-0.0001	0.0001	-0.0000	-0.0000	-0.0000	-0.0000	-0.0000	0.0007	0.0004	-0.0002	-0.0006	-0.0009	-0.0000	0.0002	0.0000	0.0003
5784.0000	-0.0000	0.0001	-0.0000	-0.0000	-0.0000	-0.0000	-0.0000	0.0007	0.0004	-0.0002	-0.0006	-0.0008	-0.0000	0.0002	-0.0000	0.0004
5792.0000	-0.0000	0.0001	-0.0000	-0.0000	-0.0000	-0.0000	-0.0000	0.0006	0.0004	-0.0002	-0.0006	-0.0008	-0.0000	0.0002	-0.0001	0.0004
5800.0000	-0.0000	0.0001	-0.0000	-0.0000	-0.0000	-0.0000	-0.0000	0.0006	0.0004	-0.0001	-0.0006	-0.0007	-0.0000	0.0002	-0.0000	0.0004
5808.0000	-0.0001	0.0001	-0.0000	-0.0000	-0.0000	-0.0000	-0.0000	0.0005	0.0005	-0.0001	-0.0006	-0.0007	-0.0000	0.0002	0.0000	0.0003
5816.0000	-0.0001	0.0001	-0.0000	-0.0000	-0.0000	-0.0000	-0.0000	0.0005	0.0005	-0.0001	-0.0005	-0.0007	-0.0000	0.0001	0.0001	0.0003
5824.0000	-0.0001	0.0001	-0.0000	-0.0000	-0.0000	-0.0000	-0.0000	0.0004	0.0005	-0.0001	-0.0004	-0.0007	-0.0000	0.0001	0.0001	0.0003
5832.0000	-0.0001	0.0001	-0.0000	-0.0000	-0.0000	-0.0000	-0.0000	0.0004	0.0005	-0.0000	-0.0003	-0.0007	-0.0000	0.0001	0.0001	0.0003
5840.0000	-0.0001	0.0001	-0.0000	-0.0000	-0.0000	-0.0000	-0.0000	0.0004	0.0005	-0.0000	-0.0003	-0.0007	-0.0000	0.0001	-0.0000	0.0003
5848.0000	-0.0000	0.0001	-0.0000	-0.0000	-0.0000	-0.0000	-0.0000	0.0004	0.0005	-0.0000	-0.0003	-0.0006	-0.0000	0.0001	-0.0001	0.0003
5856.0000	-0.0001	0.0001	-0.0000	-0.0000	-0.0000	-0.0000	-0.0000	0.0004	0.0004	-0.0000	-0.0002	-0.0006	-0.0000	0.0001	-0.0002	0.0003
5864.0000	-0.0001	0.0001	-0.0000	-0.0000	-0.0000	-0.0000	-0.0000	0.0003	0.0003	-0.0001	-0.0002	-0.0006	-0.0000	0.0001	-0.0003	0.0003
5872.0000	-0.0001	0.0001	-0.0000	-0.0000	-0.0000	-0.0000	-0.0000	0.0003	0.0003	-0.0001	-0.0000	-0.0006	-0.0000	0.0000	-0.0003	0.0002
5880.0000	-0.0001	0.0001	-0.0000	-0.0000	-0.0000	-0.0000	-0.0000	0.0003	0.0002	-0.0001	0.0002	-0.0005	-0.0000	0.0000	-0.0003	0.0002
5888.0000	-0.0001	0.0000	-0.0000	-0.0000	-0.0000	-0.0000	-0.0000	0.0003	0.0001	-0.0001	0.0003	-0.0005	-0.0000	0.0000	-0.0003	0.0003
5896.0000	0.0000	0.0000	-0.0000	-0.0000	-0.0000	-0.0000	-0.0000	0.0003	0.0001	-0.0001	0.0005	-0.0004	-0.0000	0.0000	-0.0004	0.0003
5904.0000	0.0001	0.0000	-0.0000	-0.0000	-0.0000	-0.0000	-0.0000	0.0003	0.0000	-0.0001	0.0005	-0.0003	-0.0000	0.0001	-0.0006	0.0003
5912.0000	0.0003	0.0000	-0.0000	-0.0000	-0.0000	-0.0000	-0.0000	0.0004	-0.0000	-0.0000	0.0006	-0.0002	-0.0000	0.0001	-0.0008	0.0003
5920.0000	0.0004	0.0000	0.0000	0.0000	0.0000	0.0000	0.0000	0.0005	-0.0001	0.0000	0.0007	-0.0001	0.0000	0.0001	-0.0010	0.0003
5928.0000	0.0005	-0.0001	0.0000	0.0000	0.0000	0.0000	0.0000	0.0007	-0.0001	0.0000	0.0007	-0.0000	0.0000	0.0001	-0.0013	0.0003
5936.0000	0.0006	-0.0001	0.0000	0.0000	0.0000	0.0000	0.0000	0.0008	-0.0000	0.0001	0.0008	0.0000	0.0000	0.0001	-0.0015	0.0003
5944.0000	0.0006	-0.0001	0.0000	0.0000	0.0000	0.0000	0.0000	0.0010	0.0000	0.0001	0.0008	0.0001	0.0000	0.0000	-0.0016	0.0003
5952.0000	0.0007	-0.0002	0.0000	0.0000	0.0000	0.0000	0.0000	0.0011	0.0000	0.0001	0.0008	0.0001	0.0000	0.0000	-0.0018	0.0003
5960.0000	0.0007	-0.0002	0.0000	0.0000	0.0000	0.0000	0.0000	0.0011	0.0001	0.0001	0.0008	0.0001	0.0000	-0.0000	-0.0019	0.0002
5968.0000	0.0007	-0.0003	0.0000	0.0000	0.0000	0.0000	0.0000	0.0011	0.0001	0.0001	0.0008	0.0001	0.0000	-0.0001	-0.0019	0.0002
5976.0000	0.0007	-0.0004	0.0000	0.0000	0.0000	0.0000	0.0000	0.0011	0.0001	0.0001	0.0008	0.0001	0.0000	-0.0002	-0.0020	0.0001
5984.0000	0.0007	-0.0004	0.0000	0.0000	0.0000	0.0000	0.0000	0.0011	0.0001	0.0001	0.0007	0.0000	0.0000	-0.0002	-0.0021	0.0000
5992.0000	0.0007	-0.0004	0.0000	0.0000	0.0000	0.0000	0.0000	0.0010	0.0001	0.0002	0.0007	-0.0001	0.0000	-0.0001	-0.0020	0.0000
6000.0000	0.0007	-0.0004	0.0000	0.0000	0.0000	0.0000	0.0000	0.0009	0.0001	0.0002	0.0007	-0.0002	0.0000	-0.0001	-0.0018	0.0001
6008.0000	0.0007	-0.0003	0.0000	0.0000	0.0000	0.0000	0.0000	0.0009	0.0001	0.0003	0.0007	-0.0003	0.0000	-0.0001	-0.0016	0.0000
6016.0000	0.0007	-0.0003	0.0000	0.0000	0.0000	0.0000	0.0000	0.0009	0.0002	0.0002	0.0006	-0.0003	0.0000	-0.0002	-0.0014	-0.0000
6024.0000	0.0006	-0.0003	0.0000	0.0000	0.0000	0.0000	0.0000	0.0007	0.0002	0.0002	0.0006	-0.0004	0.0000	-0.0002	-0.0010	0.0000
6032.0000	0.0005	-0.0002	0.0000	0.0000	0.0000	0.0000	0.0000	0.0005	0.0003	0.0001	0.0006	-0.0006	0.0000	-0.0001	-0.0005	0.0001
6040.0000	0.0004	-0.0002	0.0000	0.0000	0.0000	0.0000	0.0000	0.0005	0.0003	0.0001	0.0006	-0.0007	0.0000	0.0000	-0.0002	0.0002
6048.0000	0.0004	-0.0001	0.0000	0.0000	0.0000	0.0000	0.0000	0.0006	0.0002	0.0002	0.0005	-0.0007	0.0000	0.0000	-0.0001	0.0001
6056.0000	0.0003	-0.0001	0.0001	0.0001	0.0001	0.0001	0.0001	0.0006	0.0002	0.0002	0.0005	-0.0008	0.0000	0.0000	-0.0000	0.0001
6064.0000	0.0003	-0.0001	0.0001	0.0001	0.0001	0.0001	0.0001	0.0006	0.0002	0.0002	0.0005	-0.0008	0.0001	0.0000	0.0001	0.0001
6072.0000	0.0003	-0.0000	0.0001	0.0001	0.0001	0.0001	0.0001	0.0006	0.0002	0.0002	0.0004	-0.0008	0.0001	0.0000	0.0001	0.0001
6080.0000	0.0003	-0.0000	0.0001	0.0001	0.0001	0.0001	0.0001	0.0007	0.0002	0.0002	0.0004	-0.0008	0.0001	0.0000	0.0001	0.0001
6088.0000	0.0003	-0.0000	0.0001	0.0001	0.0001	0.0001	0.0001	0.0007	0.0002	0.0003	0.0004	-0.0009	0.0001	0.0000	0.0002	0.0001
6096.0000	0.0003	0.0000	0.0001	0.0001	0.0001	0.0001	0.0001	0.0007	0.0002	0.0003	0.0003	-0.0009	0.0001	0.0000	0.0002	0.0001
6104.0000	0.0002	0.0000	0.0001	0.0001	0.0001	0.0001	0.0001	0.0008	0.0002	0.0003	0.0003	-0.0009	0.0001	0.0000	0.0002	0.0001
6112.0000	0.0002	0.0000	0.0001	0.0001	0.0001	0.0001	0.0001	0.0008	0.0003	0.0003	0.0003	-0.0009	0.0001	0.0000	0.0003	0.0001
6120.0000	0.0002	0.0001	0.0001	0.0001	0.0001	0.0001	0.0001	0.0009	0.0003	0.0003	0.0002	-0.0010	0.0001	0.0000	0.0003	0.0001
6128.0000	0.0002	0.0001	0.0001	0.0001	0.0001	0.0001	0.0001	0.0008	0.0003	0.0003	0.0002	-0.0009	0.0001	0.0000	0.0003	0.0001
6136.0000	0.0002	0.0001	0.0001	0.0001	0.0001	0.0001	0.0001	0.0008	0.0003	0.0003	0.0002	-0.0009	0.0001	0.0000	0.0003	0.0001
6144.0000	0.0002	0.0001	0.0001	0.0001	0.0001	0.0001	0.0001	0.0007	0.0003	0.0003	0.0002	-0.0008	0.0000	0.0000	0.0003	0.0001
6152.0000	0.0002	0.0001	0.0001	0.0001	0.0001	0.0001	0.0001	0.0007	0.0003	0.0003	0.0001	-0.0007	0.0000	-0.0000	0.0003	0.0001
6160.0000	0.0002	0.0001	0.0000	0.0000	0.0000	0.0000	0.0000	0.0006	0.0003	0.0003	0.0001	-0.0007	0.0000	-0.0000	0.0003	0.0000
6168.0000	0.0002	0.0001	0.0000	0.0000	0.0000	0.0000	0.0000	0.0005	0.0003	0.0003	0.0001	-0.0007	0.0000	-0.0000	0.0004	0.0000
6176.0000	0.0001	0.0002	0.0000	0.0000	0.0000	0.0000	0.0000	0.0004	0.0003	0.0003	0.0000	-0.0007	0.0000	0.0000	0.0005	0.0000
6184.0000	0.0001	0.0002	0.0000	0.0000	0.0000	0.0000	0.0000	0.0004	0.0003	0.0003	0.0000	-0.0006	0.0000	0.0000	0.0006	0.0000
6192.0000	0.0001	0.0002	0.0000	0.0000	0.0000	0.0000	0.0000	0.0004	0.0003	0.0003	-0.0000	-0.0006	0.0000	-0.0000	0.0006	0.0000
6200.0000	0.0001	0.0002	0.0000	0.0000	0.0000	0.0000	0.0000	0.0005	0.0003	0.0003	-0.0001	-0.0006	0.0000	-0.0000	0.0007	0.0000
6208.0000	0.0000	0.0002	0.0000	0.0000	0.0000	0.0000	0.0000	0.0005	0.0002	0.0003	-0.0001	-0.0005	0.0000	-0.0000	0.0007	0.0000
6216.0000	0.0000	0.0002	0.0000	0.0000	0.0000	0.0000	0.0000	0.0004	0.0002	0.0002	-0.0002	-0.0005	0.0000	0.0000	0.0007	0.0000
6224.0000	0.0000	0.0002	0.0000	0.0000	0.0000	0.0000	0.0000	0.0004	0.0002	0.0001	-0.0002	-0.0005	0.0000	0.0000	0.0008	0.0000
6232.0000	-0.0000	0.0002	0.0000	0.0000	0.0000	0.0000	0.0000	0.0004	0.0002	0.0001	-0.0003	-0.0005	0.0000	0.0000	0.0008	0.0000
6240.0000	-0.0000	0.0002	0.0000	0.0000	0.0000	0.0000	0.0000	0.0004	0.0002	0.0001	-0.0003	-0.0004	0.0000	0.0000	0.0008	0.0000
6248.0000	-0.0000	0.0002	0.0000	0.0000	0.0000	0.0000	0.0000	0.0004	0.0002	0.0001	-0.0003	-0.0004	0.0000	0.0000	0.0008	0.0000
6256.0000	-0.0000	0.0002	0.0000	0.0000	0.0000	0.0000	0.0000	0.0003	0.0001	0.0000	-0.0003	-0.0004	-0.0000	-0.0000	0.0008	0.0000
6264.0000	-0.0000	0.0002	-0.0000	-0.0000	-0.0000	-0.0000	-0.0000	0.0003	0.0001	0.0000	-0.0004	-0.0004	-0.0000	-0.0000	0.0008	0.0000
6272.0000	-0.0000	0.0001	-0.0000	-0.0000	-0.0000	-0.0000	-0.0000	0.0003	0.0001	0.0000	-0.0004	-0.0004	-0.0000	-0.0000	0.0008	0.0000
6280.0000	-0.0001	0.0001	-0.0000	-0.0000	-0.0000	-0.0000	-0.0000	0.0003	0.0002	-0.0000	-0.0004	-0.0004	-0.0000	-0.0000	0.0009	0.0000
6288.0000	-0.0001	0.0001	-0.0000	-0.0000	-0.0000	-0.0000	-0.0000	0.0002	0.0002	-0.0001	-0.0004	-0.0004	-0.0000	-0.0000	0.0010	0.0000
6296.0000	-0.0001	0.0001	-0.0000	-0.0000	-0.0000	-0.0000	-0.0000	0.0001	0.0002	-0.0001	-0.0004	-0.0004	-0.0000	-0.0000	0.0011	-0.0000
6304.0000	-0.0002	0.0001	-0.0000	-0.0000	-0.0000	-0.0000	-0.0000	0.0001	0.0002	-0.0001	-0.0004	-0.0004	-0.0000	-0.0000	0.0012	-0.0000
6312.0000	-0.0002	0.0001	-0.0000	-0.0000	-0.0000	-0.0000	-0.0000	0.0000	0.0002	-0.0001	-0.0005	-0.0004	-0.0000	-0.0000	0.0012	-0.0000
6320.0000	-0.0002	0.0001	0.0000	0.0000	0.0000	0.0000	0.0000	0.0000	0.0002	-0.0000	-0.0005	-0.0004	-0.0000	-0.0000	0.0013	-0.0000
6328.0000	-0.0002	0.0001	-0.0000	-0.0000	-0.0000	-0.0000	-0.0000	-0.0001	0.0002	-0.0000	-0.0005	-0.0005	-0.0000	0.0000	0.0013	-0.0000
6336.0000	-0.0002	0.0001	-0.0000	-0.0000	-0.0000	-0.0000	-0.0000	-0.0001	0.0002	-0.0000	-0.0005	-0.0006	-0.0000	0.0000	0.0013	-0.0001
6344.0000	-0.0002	0.0001	-0.0000	-0.0000	-0.0000	-0.0000	-0.0000	-0.0002	0.0002	-0.0000	-0.0005	-0.0006	-0.0000	0.0000	0.0014	-0.0001
6352.0000	-0.0002	0.0001	-0.0000	-0.0000	-0.0000	-0.0000	-0.0000	-0.0003	0.0002	0.0000	-0.0005	-0.0006	-0.0000	0.0001	0.0014	-0.0001
6360.0000	-0.0003	0.0000	0.0000	0.0000	0.0000	0.0000	0.0000	-0.0003	0.0002	0.0000	-0.0005	-0.0006	-0.0000	0.0001	0.0014	-0.0001
6368.0000	-0.0003	0.0000	0.0000	0.0000	0.0000	0.0000	0.0000	-0.0004	0.0002	0.0000	-0.0006	-0.0006	-0.0000	0.0001	0.0014	-0.0001
6376.0000	-0.0003	-0.0000	0.0000	0.0000	0.0000	0.0000	0.0000	-0.0005	0.0002	0.0000	-0.0006	-0.0005	0.0000	0.0001	0.0014	-0.0002
6384.0000	-0.0003	0.0000	0.0000	0.0000	0.0000	0.0000	0.0000	-0.0006	0.0002	0.0000	-0.0006	-0.0005	0.0000	0.0002	0.0013	-0.0002
6392.0000	-0.0004	0.0000	0.0000	0.0000	0.0000	0.0000	0.0000	-0.0007	0.0002	0.0000	-0.0006	-0.0005	0.0000	0.0002	0.0014	-0.0002
6400.0000	-0.0004	0.0001	0.0001	0.0001	0.0001	0.0001	0.0001	-0.0007	0.0002	0.0000	-0.0006	-0.0005	0.0000	0.0002	0.0015	-0.0002
6408.0000	-0.0005	0.0001	0.0001	0.0001	0.0001	0.0001	0.0001	-0.0007	0.0002	0.0000	-0.0006	-0.0005	0.0000	0.0002	0.0015	-0.0003
6416.0000	-0.0005	0.0001	0.0001	0.0001	0.0001	0.0001	0.0001	-0.0007	0.0002	-0.0000	-0.0006	-0.0006	0.0001	0.0001	0.0016	-0.0003
6424.0000	-0.0004	0.0001	0.0001	0.0001	0.0001	0.0001	0.0001	-0.0007	0.0002	-0.0001	-0.0005	-0.0006	0.0001	0.0001	0.0016	-0.0003
6432.0000	-0.0004	0.0000	0.0001	0.0001	0.0001	0.0001	0.0001	-0.0006	0.0002	-0.0001	-0.0004	-0.0006	0.0001	0.0001	0.0016	-0.0003
6440.0000	-0.0004	-0.0001	0.0001	0.0001	0.0001	0.0001	0.0001	-0.0006	0.0002	-0.0002	-0.0003	-0.0005	0.0001	0.0001	0.0016	-0.0003
6448.0000	-0.0004	-0.0001	0.0001	0.0001	0.0001	0.0001	0.0001	-0.0005	0.0002	-0.0002	-0.0001	-0.0005	0.0001	0.0001	0.0016	-0.0002
6456.0000	-0.0003	-0.0001	0.0001	0.0001	0.0001	0.0001	0.0001	-0.0005	0.0002	-0.0002	-0.0000	-0.0005	0.0001	0.0001	0.0016	-0.0002
6464.0000	-0.0003	-0.0001	0.0001	0.0001	0.0001	0.0001	0.0001	-0.0006	0.0002	-0.0002	0.0001	-0.0005	0.0001	0.0000	0.0016	-0.0002
6472.0000	-0.0003	-0.0001	0.0001	0.0001	0.0001	0.0001	0.0001	-0.0006	0.0002	-0.0001	0.0002	-0.0004	0.0001	0.0000	0.0016	-0.0002
6480.0000	-0.0003	-0.0001	0.0001	0.0001	0.0001	0.0001	0.0001	-0.0007	0.0002	-0.0001	0.0005	-0.0004	0.0001	0.0000	0.0016	-0.0002
6488.0000	-0.0003	-0.0000	0.0001	0.0001	0.0001	0.0001	0.0001	-0.0007	0.0002	-0.0000	0.0006	-0.0004	0.0001	0.0000	0.0016	-0.0002
6496.0000	-0.0002	0.0000	0.0001	0.0001	0.0001	0.0001	0.0001	-0.0007	0.0003	-0.0000	0.0006	-0.0004	0.0001	0.0000	0.0016	-0.0002
6504.0000	-0.0002	0.0000	0.0001	0.0001	0.0001	0.0001	0.0001	-0.0007	0.0003	0.0000	0.0006	-0.0004	0.0001	0.0000	0.0016	-0.0002
6512.0000	-0.0002	0.0000	0.0001	0.0001	0.0001	0.0001	0.0001	-0.0007	0.0003	0.0000	0.0006	-0.0004	0.0001	0.0000	0.0016	-0.0002
6520.0000	-0.0002	0.0000	0.0002	0.0002	0.0002	0.0002	0.0002	-0.0006	0.0003	0.0000	0.0006	-0.0004	0.0001	0.0000	0.0016	-0.0002
6528.0000	-0.0002	-0.0000	0.0002	0.0002	0.0002	0.0002	0.0002	-0.0006	0.0003	-0.0000	0.0006	-0.0004	0.0001	0.0000	0.0016	-0.0002
6536.0000	-0.0002	-0.0000	0.0001	0.0001	0.0001	0.0001	0.0001	-0.0006	0.0003	-0.0000	0.0007	-0.0004	0.0001	-0.0000	0.0016	-0.0002
6544.0000	-0.0002	-0.0001	0.0001	0.0001	0.0001	0.0001	0.0001	-0.0007	0.0002	-0.0001	0.0007	-0.0004	0.0001	-0.0000	0.0017	-0.0002
6552.0000	-0.0003	-0.0001	0.0000	0.0000	0.0000	0.0000	0.0000	-0.0007	0.0002	-0.0001	0.0007	-0.0004	0.0000	-0.0001	0.0017	-0.0002
6560.0000	-0.0003	-0.0001	0.0000	0.0000	0.0000	0.0000	0.0000	-0.0007	0.0001	-0.0001	0.0007	-0.0005	0.0000	-0.0001	0.0017	-0.0002
6568.0000	-0.0004	-0.0001	0.0000	0.0000	0.0000	0.0000	0.0000	-0.0008	0.0001	-0.0001	0.0007	-0.0005	0.0000	-0.0001	0.0017	-0.0003
6576.0000	-0.0005	-0.0002	0.0000	0.0000	0.0000	0.0000	0.0000	-0.0008	0.0000	-0.0001	0.0008	-0.0005	0.0000	-0.0001	0.0016	-0.0003
6584.0000	-0.0007	-0.0002	0.0000	0.0000	0.0000	0.0000	0.0000	-0.0009	0.0000	-0.0001	0.0008	-0.0006	0.0000	-0.0002	0.0015	-0.0003
6592.0000	-0.0007	-0.0003	0.0000	0.0000	0.0000	0.0000	0.0000	-0.0008	-0.0000	-0.0002	0.0007	-0.0009	0.0000	-0.0002	0.0015	-0.0003
6600.0000	-0.0007	-0.0002	0.0000	0.0000	0.0000	0.0000	0.0000	-0.0007	-0.0000	-0.0003	0.0007	-0.0012	0.0000	-0.0002	0.0014	-0.0003
6608.0000	-0.0007	-0.0002	0.0000	0.0000	0.0000	0.0000	0.0000	-0.0008	-0.0000	-0.0004	0.0007	-0.0011	0.0000	-0.0002	0.0014	-0.0003
6616.0000	-0.0007	-0.0001	0.0000	0.0000	0.0000	0.0000	0.0000	-0.0009	-0.0001	-0.0004	0.0007	-0.0011	0.0000	-0.0001	0.0013	-0.0003
6624.0000	-0.0007	-0.0001	0.0000	0.0000	0.0000	0.0000	0.0000	-0.0009	-0.0001	-0.0003	0.0007	-0.0011	0.0000	-0.0001	0.0012	-0.0003
6632.0000	-0.0006	-0.0001	0.0000	0.0000	0.0000	0.0000	0.0000	-0.0009	-0.0001	-0.0002	0.0007	-0.0010	0.0000	-0.0001	0.0010	-0.0002
6640.0000	-0.0006	-0.0001	0.0000	0.0000	0.0000	0.0000	0.0000	-0.0009	-0.0001	-0.0002	0.0006	-0.0006	0.0000	-0.0002	0.0009	-0.0002
6648.0000	-0.0006	-0.0001	0.0001	0.0001	0.0001	0.0001	0.0001	-0.0009	-0.0001	-0.0002	0.0006	-0.0001	0.0001	-0.0003	0.0009	-0.0002
6656.0000	-0.0007	-0.0001	0.0001	0.0001	0.0001	0.0001	0.0001	-0.0010	-0.0001	-0.0002	0.0006	0.0003	0.0001	-0.0003	0.0010	-0.0001
6664.0000	-0.0007	-0.0002	0.0001	0.0001	0.0001	0.0001	0.0001	-0.0010	-0.0002	-0.0002	0.0006	0.0004	0.0001	-0.0003	0.0010	-0.0001
6672.0000	-0.0007	-0.0002	0.0001	0.0001	0.0001	0.0001	0.0001	-0.0010	-0.0002	-0.0002	0.0005	0.0004	0.0001	-0.0003	0.0010	-0.0001
6680.0000	-0.0007	-0.0002	0.0001	0.0001	0.0001	0.0001	0.0001	-0.0010	-0.0002	-0.0002	0.0005	0.0004	0.0001	-0.0003	0.0010	-0.0001
6688.0000	-0.0008	-0.0002	0.0001	0.0001	0.0001	0.0001	0.0001	-0.0010	-0.0003	-0.0002	0.0005	0.0003	0.0001	-0.0003	0.0011	-0.0001
6696.0000	-0.0008	-0.0002	0.0001	0.0001	0.0001	0.0001	0.0001	-0.0010	-0.0003	-0.0002	0.0005	0.0003	0.0001	-0.0003	0.0011	-0.0001
6704.0000	-0.0009	-0.0003	0.0000	0.0000	0.0000	0.0000	0.0000	-0.0010	-0.0003	-0.0002	0.0004	0.0003	0.0001	-0.0003	0.0012	-0.0001
6712.0000	-0.0009	-0.0003	0.0000	0.0000	0.0000	0.0000	0.0000	-0.0010	-0.0003	-0.0002	0.0004	0.0002	0.0001	-0.0003	0.0012	-0.0001
6720.0000	-0.0010	-0.0003	0.0000	0.0000	0.0000	0.0000	0.0000	-0.0010	-0.0004	-0.0002	0.0004	0.0002	0.0001	-0.0003	0.0012	-0.0001
6728.0000	-0.0010	-0.0003	0.0000	0.0000	0.0000	0.0000	0.0000	-0.0010	-0.0004	-0.0002	0.0004	0.0002	0.0001	-0.0003	0.0012	-0.0001
6736.0000	-0.0010	-0.0003	0.0000	0.0000	0.0000	0.0000	0.0000	-0.0010	-0.0004	-0.0002	0.0004	0.0002	0.0001	-0.0003	0.0011	-0.0001
6744.0000	-0.0010	-0.0003	0.0001	0.0001	0.0001	0.0001	0.0001	-0.0009	-0.0004	-0.0002	0.0004	0.0002	0.0001	-0.0004	0.0011	-0.0000
6752.0000	-0.0010	-0.0003	0.0001	0.0001	0.0001	0.0001	0.0001	-0.0009	-0.0003	-0.0002	0.0004	0.0002	0.0001	-0.0004	0.0011	-0.0000
6760.0000	-0.0010	-0.0003	0.0001	0.0001	0.0001	0.0001	0.0001	-0.0007	-0.0003	-0.0002	0.0004	0.0002	0.0001	-0.0004	0.0010	-0.0000
6768.0000	-0.0009	-0.0003	0.0000	0.0000	0.0000	0.0000	0.0000	-0.0006	-0.0003	-0.0002	0.0004	0.0002	0.0001	-0.0004	0.0010	0.0000
6776.0000	-0.0009	-0.0003	0.0000	0.0000	0.0000	0.0000	0.0000	-0.0005	-0.0002	-0.0002	0.0004	0.0002	0.0001	-0.0003	0.0010	0.0000
6784.0000	-0.0009	-0.0002	0.0000	0.0000	0.0000	0.0000	0.0000	-0.0003	-0.0002	-0.0002	0.0005	0.0002	0.0001	-0.0003	0.0009	0.0000
6792.0000	-0.0009	-0.0002	0.0000	0.0000	0.0000	0.0000	0.0000	-0.0002	-0.0002	-0.0002	0.0005	0.0003	0.0001	-0.0003	0.0009	0.0000
6800.0000	-0.0008	-0.0002	0.0000	0.0000	0.0000	0.0000	0.0000	-0.0002	-0.0001	-0.0001	0.0005	0.0003	0.0001	-0.0003	0.0009	0.0000
6808.0000	-0.0008	-0.0002	0.0000	0.0000	0.0000	0.0000	0.0000	-0.0001	-0.0001	-0.0001	0.0005	0.0003	0.0001	-0.0003	0.0009	0.0001
6816.0000	-0.0008	-0.0002	0.0001	0.0001	0.0001	0.0001	0.0001	-0.0000	-0.0001	-0.0001	0.0005	0.0003	0.0001	-0.0003	0.0009	0.0001
6824.0000	-0.0008	-0.0003	0.0001	0.0001	0.0001	0.0001	0.0001	0.0000	-0.0001	-0.0001	0.0005	0.0003	0.0001	-0.0003	0.0009	0.0001
6832.0000	-0.0008	-0.0003	0.0001	0.0001	0.0001	0.0001	0.0001	0.0001	-0.0001	-0.0002	0.0005	0.0003	0.0001	-0.0003	0.0008	0.0001
6840.0000	-0.0008	-0.0004	0.0001	0.0001	0.0001	0.0001	0.0001	0.0002	-0.0001	-0.0002	0.0004	0.0003	0.0001	-0.0003	0.0008	0.0001
6848.0000	-0.0008	-0.0005	0.0001	0.0001	0.0001	0.0001	0.0001	0.0002	-0.0002	-0.0003	0.0004	0.0003	0.0001	-0.0004	0.0008	0.0001
6856.0000	-0.0008	-0.0005	0.0001	0.0001	0.0001	0.0001	0.0001	0.0003	-0.0003	-0.0003	0.0004	0.0003	0.0001	-0.0004	0.0008	0.0001
6864.0000	-0.0007	-0.0006	0.0001	0.0001	0.0001	0.0001	0.0001	0.0005	-0.0003	-0.0003	0.0003	0.0003	0.0002	-0.0004	0.0008	0.0001
6872.0000	-0.0007	-0.0006	0.0001	0.0001	0.0001	0.0001	0.0001	0.0006	-0.0004	-0.0003	0.0003	0.0004	0.0002	-0.0004	0.0008	0.0001
6880.0000	-0.0006	-0.0006	0.0001	0.0001	0.0001	0.0001	0.0001	0.0007	-0.0004	-0.0003	0.0003	0.0004	0.0002	-0.0004	0.0008	0.0001
6888.0000	-0.0006	-0.0006	0.0001	0.0001	0.0001	0.0001	0.0001	0.0008	-0.0005	-0.0003	0.0003	0.0004	0.0002	-0.0004	0.0008	0.0001
6896.0000	-0.0006	-0.0006	0.0001	0.0001	0.0001	0.0001	0.0001	0.0008	-0.0005	-0.0003	0.0003	0.0005	0.0002	-0.0004	0.0008	0.0002
6904.0000	-0.0005	-0.0006	0.0001	0.0001	0.0001	0.0001	0.0001	0.0008	-0.0005	-0.0003	0.0002	0.0005	0.0003	-0.0003	0.0008	0.0002
6912.0000	-0.0005	-0.0006	0.0001	0.0001	0.0001	0.0001	0.0001	0.0009	-0.0005	-0.0003	0.0002	0.0005	0.0002	-0.0003	0.0008	0.0003
6920.0000	-0.0005	-0.0005	0.0001	0.0001	0.0001	0.0001	0.0001	0.0008	-0.0004	-0.0003	0.0002	0.0006	0.0002	-0.0003	0.0007	0.0003
6928.0000	-0.0005	-0.0005	0.0001	0.0001	0.0001	0.0001	0.0001	0.0007	-0.0004	-0.0002	0.0002	0.0006	0.0003	-0.0003	0.0007	0.0003
6936.0000	-0.0005	-0.0004	0.0001	0.0001	0.0001	0.0001	0.0001	0.0005	-0.0004	-0.0002	0.0002	0.0006	0.0002	-0.0003	0.0006	0.0003
6944.0000	-0.0004	-0.0004	0.0001	0.0001	0.0001	0.0001	0.0001	0.0003	-0.0004	-0.0001	0.0002	0.0006	0.0002	-0.0003	0.0006	0.0004
6952.0000	-0.0004	-0.0005	0.0000	0.0000	0.0000	0.0000	0.0000	0.0002	-0.0004	-0.0001	0.0002	0.0006	0.0002	-0.0003	0.0005	0.0004
6960.0000	-0.0004	-0.0005	-0.0000	-0.0000	-0.0000	-0.0000	-0.0000	0.0000	-0.0004	-0.0001	0.0001	0.0006	0.0002	-0.0003	0.0005	0.0004
6968.0000	-0.0004	-0.0005	-0.0000	-0.0000	-0.0000	-0.0000	-0.0000	-0.0001	-0.0004	-0.0001	0.0001	0.0006	0.0001	-0.0003	0.0004	0.0004
6976.0000	-0.0005	-0.0006	-0.0001	-0.0001	-0.0001	-0.0001	-0.0001	-0.0001	-0.0004	-0.0001	0.0001	0.0006	0.0001	-0.0003	0.0004	0.0004
6984.0000	-0.0005	-0.0007	-0.0001	-0.0001	-0.0001	-0.0001	-0.0001	-0.0002	-0.0004	-0.0000	0.0001	0.0006	0.0001	-0.0003	0.0003	0.0004
6992.0000	-0.0005	-0.0007	-0.0001	-0.0001	-0.0001	-0.0001	-0.0001	-0.0003	-0.0004	-0.0000	0.0001	0.0006	0.0000	-0.0003	0.0004	0.0004
7000.0000	-0.0004	-0.0005	-0.0001	-0.0001	-0.0001	-0.0001	-0.0001	-0.0004	-0.0004	0.0000	0.0001	0.0006	0.0000	-0.0003	0.0003	0.0004
7008.0000	-0.0004	-0.0004	-0.0001	-0.0001	-0.0001	-0.0001	-0.0001	-0.0005	-0.0003	0.0001	0.0001	0.0006	0.0000	-0.0003	0.0003	0.0004
7016.0000	-0.0004	-0.0004	-0.0001	-0.0001	-0.0001	-0.0001	-0.0001	-0.0007	-0.0003	0.0001	0.0002	0.0006	0.0001	-0.0003	0.0002	0.0004
7024.0000	-0.0004	-0.0003	-0.0001	-0.0001	-0.0001	-0.0001	-0.0001	-0.0009	-0.0003	0.0001	0.0002	0.0006	0.0000	-0.0002	0.0002	0.0004
7032.0000	-0.0003	-0.0003	-0.0001	-0.0001	-0.0001	-0.0001	-0.0001	-0.0010	-0.0002	0.0001	0.0003	0.0006	0.0000	-0.0001	0.0002	0.0004
7040.0000	-0.0003	-0.0002	-0.0001	-0.0001	-0.0001	-0.0001	-0.0001	-0.0011	-0.0002	0.0002	0.0003	0.0005	0.0001	-0.0001	0.0001	0.0004
7048.0000	-0.0002	-0.0002	-0.0001	-0.0001	-0.0001	-0.0001	-0.0001	-0.0011	-0.0002	0.0002	0.0003	0.0004	0.0001	-0.0001	0.0001	0.0004
7056.0000	-0.0002	-0.0002	-0.0001	-0.0001	-0.0001	-0.0001	-0.0001	-0.0012	-0.0002	0.0002	0.0003	0.0004	0.0001	-0.0000	0.0001	0.0004
7064.0000	-0.0002	-0.0002	-0.0001	-0.0001	-0.0001	-0.0001	-0.0001	-0.0012	-0.0002	0.0002	0.0003	0.0003	0.0001	-0.0000	0.0000	0.0005
7072.0000	-0.0002	-0.0002	-0.0001	-0.0001	-0.0001	-0.0001	-0.0001	-0.0012	-0.0002	0.0002	0.0003	0.0002	0.0001	-0.0000	0.0000	0.0005
7080.0000	-0.0001	-0.0002	-0.0001	-0.0001	-0.0001	-0.0001	-0.0001	-0.0012	-0.0002	0.0001	0.0002	0.0002	0.0001	-0.0001	0.0000	0.0004
7088.0000	-0.0000	-0.0001	-0.0001	-0.0001	-0.0001	-0.0001	-0.0001	-0.0011	-0.0001	0.0001	0.0001	0.0002	0.0001	-0.0001	-0.0000	0.0004
7096.0000	0.0001	-0.0001	-0.0001	-0.0001	-0.0001	-0.0001	-0.0001	-0.0011	-0.0001	0.0001	-0.0000	0.0001	0.0001	-0.0001	-0.0001	0.0004
7104.0000	0.0002	-0.0001	-0.0001	-0.0001	-0.0001	-0.0001	-0.0001	-0.0011	-0.0001	0.0001	-0.0000	0.0000	0.0001	-0.0001	-0.0001	0.0004
7112.0000	0.0002	-0.0001	-0.0001	-0.0001	-0.0001	-0.0001	-0.0001	-0.0012	-0.0001	0.0001	-0.0000	-0.0000	0.0001	-0.0000	-0.0002	0.0004
7120.0000	0.0003	-0.0001	-0.0001	-0.0001	-0.0001	-0.0001	-0.0001	-0.0012	-0.0001	0.0001	-0.0000	-0.0000	0.0002	-0.0001	-0.0002	0.0004
7128.0000	0.0003	-0.0000	-0.0001	-0.0001	-0.0001	-0.0001	-0.0001	-0.0013	-0.0000	0.0001	-0.0001	-0.0001	0.0002	-0.0000	-0.0002	0.0004
7136.0000	0.0005	0.0000	-0.0001	-0.0001	-0.0001	-0.0001	-0.0001	-0.0013	-0.0000	0.0001	-0.0001	-0.0001	0.0002	-0.0000	-0.0003	0.0004
7144.0000	0.0006	0.0001	-0.0001	-0.0001	-0.0001	-0.0001	-0.0001	-0.0013	0.0000	0.0000	-0.0002	-0.0001	0.0002	0.0000	-0.0004	0.0004
7152.0000	0.0007	0.0002	-0.0001	-0.0001	-0.0001	-0.0001	-0.0001	-0.0013	0.0001	0.0000	-0.0002	-0.0000	0.0002	0.0001	-0.0005	0.0004
7160.0000	0.0008	0.0002	-0.0001	-0.0001	-0.0001	-0.0001	-0.0001	-0.0013	0.0001	0.0000	-0.0002	-0.0000	0.0002	0.0002	-0.0006	0.0003
7168.0000	0.0009	0.0003	-0.0001	-0.0001	-0.0001	-0.0001	-0.0001	-0.0012	0.0002	-0.0000	-0.0002	-0.0001	0.0002	0.0002	-0.0008	0.0002
7176.0000	0.0011	0.0003	-0.0001	-0.0001	-0.0001	-0.0001	-0.0001	-0.0010	0.0002	0.0000	-0.0002	-0.0001	0.0002	0.0003	-0.0009	0.0001
7184.0000	0.0012	0.0004	-0.0001	-0.0001	-0.0001	-0.0001	-0.0001	-0.0008	0.0003	0.0000	-0.0003	-0.0001	0.0002	0.0004	-0.0012	0.0000
7192.0000	0.0012	0.0004	-0.0001	-0.0001	-0.0001	-0.0001	-0.0001	-0.0005	0.0004	0.0001	-0.0003	-0.0001	0.0002	0.0005	-0.0014	-0.0001
7200.0000	0.0013	0.0005	-0.0001	-0.0001	-0.0001	-0.0001	-0.0001	-0.0004	0.0004	0.0001	-0.0003	-0.0001	0.0002	0.0005	-0.0016	-0.0002
7208.0000	0.0013	0.0005	-0.0001	-0.0001	-0.0001	-0.0001	-0.0001	-0.0004	0.0004	0.0001	-0.0003	-0.0002	0.0002	0.0006	-0.0018	-0.0003
7216.0000	0.0013	0.0005	-0.0001	-0.0001	-0.0001	-0.0001	-0.0001	-0.0004	0.0004	0.0001	-0.0003	-0.0002	0.0002	0.0006	-0.0020	-0.0003
7224.0000	0.0014	0.0006	-0.0002	-0.0002	-0.0002	-0.0002	-0.0002	-0.0004	0.0004	0.0001	-0.0003	-0.0002	0.0002	0.0006	-0.0023	-0.0002
7232.0000	0.0015	0.0006	-0.0002	-0.0002	-0.0002	-0.0002	-0.0002	-0.0002	0.0004	0.0001	-0.0003	-0.0001	0.0002	0.0006	-0.0027	-0.0001
7240.0000	0.0015	0.0006	-0.0002	-0.0002	-0.0002	-0.0002	-0.0002	-0.0001	0.0004	0.0002	-0.0003	-0.0002	0.0002	0.0006	-0.0031	-0.0001
7248.0000	0.0016	0.0006	-0.0002	-0.0002	-0.0002	-0.0002	-0.0002	0.0000	0.0005	0.0002	-0.0003	-0.0001	0.0002	0.0006	-0.0034	-0.0001
7256.0000	0.0017	0.0006	-0.0002	-0.0002	-0.0002	-0.0002	-0.0002	0.0001	0.0006	0.0002	-0.0003	-0.0001	0.0002	0.0006	-0.0037	0.0000
7264.0000	0.0017	0.0006	-0.0002	-0.0002	-0.0002	-0.0002	-0.0002	0.0002	0.0006	0.0002	-0.0003	-0.0001	0.0002	0.0005	-0.0041	0.0001
7272.0000	0.0017	0.0006	-0.0002	-0.0002	-0.0002	-0.0002	-0.0002	0.0002	0.0006	0.0002	-0.0003	-0.0001	0.0002	0.0006	-0.0042	0.0001
7280.0000	0.0017	0.0006	-0.0002	-0.0002	-0.0002	-0.0002	-0.0002	0.0003	0.0006	0.0002	-0.0004	0.0000	0.0002	0.0006	-0.0040	0.0001
7288.0000	0.0017	0.0006	-0.0002	-0.0002	-0.0002	-0.0002	-0.0002	0.0004	0.0006	0.0003	-0.0004	0.0002	0.0002	0.0006	-0.0035	0.0001
7296.0000	0.0017	0.0007	-0.0002	-0.0002	-0.0002	-0.0002	-0.0002	0.0006	0.0005	0.0004	-0.0003	0.0002	0.0003	0.0005	-0.0032	0.0001
7304.0000	0.0016	0.0007	-0.0001	-0.0001	-0.0001	-0.0001	-0.0001	0.0008	0.0005	0.0003	-0.0003	0.0001	0.0002	0.0004	-0.0029	0.0001
7312.0000	0.0015	0.0007	-0.0001	-0.0001	-0.0001	-0.0001	-0.0001	0.0009	0.0004	-0.0000	-0.0003	0.0001	0.0002	0.0003	-0.0026	0.0001
7320.0000	0.0015	0.0007	-0.0001	-0.0001	-0.0001	-0.0001	-0.0001	0.0010	0.0004	-0.0004	-0.0003	0.0002	0.0003	0.0003	-0.0023	0.0001
7328.0000	0.0015	0.0006	-0.0001	-0.0001	-0.0001	-0.0001	-0.0001	0.0011	0.0004	-0.0006	-0.0004	0.0002	0.0003	0.0002	-0.0023	0.0002
7336.0000	0.0015	0.0006	-0.0001	-0.0001	-0.0001	-0.0001	-0.0001	0.0011	0.0003	-0.0007	-0.0004	0.0003	0.0003	0.0002	-0.0023	0.0002
7344.0000	0.0014	0.0006	-0.0001	-0.0001	-0.0001	-0.0001	-0.0001	0.0009	0.0003	-0.0008	-0.0004	0.0003	0.0003	0.0002	-0.0022	0.0001
7352.0000	0.0012	0.0006	-0.0001	-0.0001	-0.0001	-0.0001	-0.0001	0.0007	0.0003	-0.0007	-0.0005	0.0002	0.0004	0.0001	-0.0018	0.0000
7360.0000	0.0011	0.0007	-0.0001	-0.0001	-0.0001	-0.0001	-0.0001	0.0007	0.0002	-0.0006	-0.0006	0.0001	0.0003	0.0000	-0.0016	0.0000
7368.0000	0.0010	0.0007	-0.0001	-0.0001	-0.0001	-0.0001	-0.0001	0.0008	0.0001	-0.0005	-0.0006	0.0001	0.0003	0.0000	-0.0015	0.0000
7376.0000	0.0009	0.0007	-0.0001	-0.0001	-0.0001	-0.0001	-0.0001	0.0007	-0.0000	-0.0003	-0.0005	0.0000	0.0004	0.0001	-0.0013	0.0000
