Time	FP1	FP2	C3	C4	P7	P8	O1	O2	F7	F8	F3	F4	T7	T8	P3	P4
0.0000	0.0667	-0.1467	0.0286	0.0682	0.1261	0.0980	0.1566	0.0273	0.0795	0.0004	-2.8620	-3.3626	0.0895	0.1576	3.1577	-0.4169
8.0000	0.0792	-0.1428	0.0454	0.0462	-0.0337	0.0724	0.1272	-0.0790	0.2148	0.2251	-2.0101	-2.5579	0.0267	0.3017	3.4928	-0.1276
16.0000	0.0531	-0.0091	0.0124	0.0064	-0.0641	0.0468	0.0775	-0.1322	0.2329	0.3045	-1.3203	-1.8747	-0.0170	0.3348	3.6239	0.1118
24.0000	0.0278	0.0986	-0.0151	-0.0179	-0.0474	0.0401	0.0608	-0.1290	0.1762	0.2707	-0.9122	-1.4572	-0.0384	0.2860	3.6331	0.2383
32.0000	0.0358	0.0683	0.0057	-0.0196	-0.0991	0.0430	0.0704	-0.1268	0.1512	0.2464	-0.5548	-1.1047	-0.0512	0.2483	3.6531	0.3248
40.0000	0.0471	-0.0282	0.0319	-0.0256	-0.1809	0.0344	0.0549	-0.1469	0.1467	0.2176	-0.2375	-0.7961	-0.0618	0.2147	3.6125	0.3936
48.0000	0.0388	-0.1065	0.0275	-0.0383	-0.2226	0.0206	0.0244	-0.1608	0.1051	0.1276	-0.1041	-0.6628	-0.0685	0.1443	3.4310	0.4029
56.0000	0.0406	-0.1753	0.0281	-0.0301	-0.2417	0.0228	0.0290	-0.1506	0.0547	0.0329	-0.0844	-0.6448	-0.0644	0.0746	3.1880	0.3699
64.0000	0.0662	-0.2282	0.0569	-0.0030	-0.2535	0.0349	0.0558	-0.1294	0.0462	0.0019	-0.0294	-0.5942	-0.0471	0.0506	2.9569	0.3483
72.0000	0.0806	-0.2163	0.0794	0.0106	-0.2266	0.0339	0.0577	-0.1109	0.0609	0.0075	0.0436	-0.5140	-0.0310	0.0473	2.7195	0.3379
80.0000	0.0691	-0.1485	0.0785	0.0052	-0.1685	0.0233	0.0434	-0.0924	0.0689	0.0166	0.1072	-0.4328	-0.0313	0.0385	2.5002	0.3218
88.0000	0.0593	-0.0748	0.0792	0.0027	-0.1258	0.0218	0.0380	-0.0699	0.0843	0.0509	0.2454	-0.2793	-0.0387	0.0465	2.3676	0.3220
96.0000	0.0593	0.0035	0.0852	0.0028	-0.1021	0.0224	0.0212	-0.0503	0.1157	0.1109	0.4759	-0.0333	-0.0399	0.0784	2.3108	0.3530
104.0000	0.0502	0.0978	0.0781	-0.0102	-0.0769	0.0065	-0.0166	-0.0415	0.1403	0.1628	0.7198	0.2348	-0.0461	0.1055	2.2833	0.3937
112.0000	0.0390	0.1701	0.0721	-0.0278	-0.0632	-0.0144	-0.0369	-0.0422	0.1463	0.2027	0.9666	0.5107	-0.0682	0.1185	2.2949	0.4331
120.0000	0.0474	0.1943	0.0918	-0.0325	-0.0742	-0.0148	-0.0269	-0.0445	0.1412	0.2409	1.2379	0.8140	-0.0871	0.1309	2.3384	0.4728
128.0000	0.0604	0.2005	0.1171	-0.0303	-0.0908	-0.0010	-0.0201	-0.0423	0.1258	0.2571	1.4647	1.0804	-0.0846	0.1368	2.3403	0.4945
136.0000	0.0512	0.2063	0.1151	-0.0354	-0.1056	0.0012	-0.0224	-0.0347	0.0987	0.2377	1.5890	1.2470	-0.0767	0.1225	2.2659	0.4866
144.0000	0.0365	0.1867	0.0961	-0.0440	-0.1352	-0.0068	-0.0122	-0.0284	0.0651	0.1999	1.6535	1.3445	-0.0814	0.0926	2.1442	0.4692
152.0000	0.0482	0.1342	0.0870	-0.0447	-0.1756	-0.0030	-0.0048	-0.0362	0.0262	0.1490	1.6754	1.3907	-0.0849	0.0545	1.9652	0.4463
160.0000	0.0773	0.0710	0.0859	-0.0333	-0.2048	0.0131	-0.0216	-0.0602	-0.0156	0.0803	1.6057	1.3447	-0.0716	0.0130	1.6912	0.3934
168.0000	0.0919	0.0075	0.0766	-0.0090	-0.2185	0.0209	-0.0338	-0.0829	-0.0485	0.0205	1.4673	1.2291	-0.0553	-0.0157	1.3569	0.3186
176.0000	0.0896	-0.0465	0.0603	0.0248	-0.2214	0.0163	-0.0142	-0.0880	-0.0686	-0.0031	1.3497	1.1304	-0.0513	-0.0237	1.0330	0.2638
184.0000	0.0917	-0.0614	0.0473	0.0573	-0.2087	0.0139	0.0083	-0.0822	-0.0815	-0.0075	1.2703	1.0680	-0.0486	-0.0286	0.7286	0.2358
192.0000	0.1021	-0.0332	0.0389	0.0779	-0.1870	0.0135	0.0036	-0.0826	-0.0798	-0.0118	1.1994	1.0135	-0.0371	-0.0361	0.4291	0.2093
200.0000	0.1031	-0.0017	0.0292	0.0840	-0.1772	0.0012	-0.0134	-0.0909	-0.0592	0.0010	1.1620	0.9918	-0.0334	-0.0246	0.1640	0.1889
208.0000	0.0885	0.0106	0.0195	0.0817	-0.1801	-0.0171	-0.0216	-0.0940	-0.0441	0.0375	1.1819	1.0324	-0.0512	0.0057	-0.0421	0.1959
216.0000	0.0736	0.0266	0.0193	0.0850	-0.1773	-0.0185	-0.0164	-0.0818	-0.0504	0.0706	1.2145	1.0952	-0.0689	0.0219	-0.2181	0.2170
224.0000	0.0708	0.0595	0.0284	0.1028	-0.1661	-0.0035	0.0037	-0.0587	-0.0555	0.0862	1.2244	1.1396	-0.0598	0.0165	-0.3974	0.2279
232.0000	0.0753	0.0852	0.0301	0.1241	-0.1603	0.0040	0.0255	-0.0421	-0.0454	0.0949	1.2302	1.1768	-0.0339	0.0136	-0.5797	0.2351
240.0000	0.0809	0.0826	0.0190	0.1351	-0.1622	-0.0012	0.0263	-0.0442	-0.0421	0.0976	1.2353	1.2101	-0.0187	0.0155	-0.7591	0.2513
248.0000	0.0898	0.0621	0.0188	0.1426	-0.1619	-0.0018	0.0165	-0.0558	-0.0511	0.0911	1.2169	1.2189	-0.0162	0.0059	-0.9412	0.2668
256.0000	0.0968	0.0470	0.0441	0.1547	-0.1570	0.0016	0.0251	-0.0581	-0.0494	0.0875	1.1820	1.2135	-0.0133	-0.0055	-1.1267	0.2732
264.0000	0.0875	0.0506	0.0718	0.1591	-0.1554	-0.0060	0.0407	-0.0472	-0.0405	0.0931	1.1530	1.2201	-0.0122	0.0003	-1.3101	0.2773
272.0000	0.0662	0.0692	0.0814	0.1474	-0.1607	-0.0168	0.0345	-0.0320	-0.0479	0.0984	1.1270	1.2351	-0.0184	0.0120	-1.4829	0.2816
280.0000	0.0554	0.0890	0.0880	0.1326	-0.1638	-0.0129	0.0192	-0.0161	-0.0576	0.1055	1.1046	1.2532	-0.0209	0.0140	-1.6334	0.2843
288.0000	0.0567	0.1034	0.1031	0.1204	-0.1535	-0.0065	0.0196	-0.0012	-0.0451	0.1248	1.1055	1.2925	-0.0158	0.0174	-1.7580	0.2925
296.0000	0.0451	0.1170	0.1082	0.1008	-0.1322	-0.0183	0.0264	0.0070	-0.0316	0.1475	1.1305	1.3564	-0.0192	0.0298	-1.8635	0.3112
304.0000	0.0142	0.1306	0.0928	0.0774	-0.1136	-0.0341	0.0286	0.0090	-0.0437	0.1617	1.1647	1.4296	-0.0350	0.0372	-1.9481	0.3345
312.0000	-0.0102	0.1392	0.0738	0.0623	-0.1063	-0.0337	0.0320	0.0083	-0.0599	0.1755	1.2102	1.5128	-0.0458	0.0377	-2.0044	0.3589
320.0000	-0.0126	0.1464	0.0624	0.0466	-0.1097	-0.0304	0.0255	-0.0037	-0.0582	0.1902	1.2640	1.6052	-0.0498	0.0436	-2.0487	0.3848
328.0000	-0.0061	0.1566	0.0537	0.0228	-0.1221	-0.0393	0.0012	-0.0297	-0.0565	0.1889	1.2965	1.6762	-0.0610	0.0486	-2.1128	0.4018
336.0000	-0.0017	0.1594	0.0478	0.0117	-0.1363	-0.0433	-0.0092	-0.0475	-0.0664	0.1731	1.2930	1.7081	-0.0717	0.0384	-2.2057	0.3984
344.0000	0.0053	0.1473	0.0478	0.0245	-0.1395	-0.0292	0.0113	-0.0392	-0.0687	0.1666	1.2755	1.7255	-0.0644	0.0266	-2.3110	0.3823
352.0000	0.0173	0.1384	0.0496	0.0372	-0.1321	-0.0140	0.0291	-0.0206	-0.0569	0.1742	1.2629	1.7503	-0.0505	0.0326	-2.4132	0.3710
360.0000	0.0268	0.1492	0.0543	0.0347	-0.1271	-0.0102	0.0313	-0.0099	-0.0460	0.1792	1.2551	1.7756	-0.0465	0.0436	-2.5054	0.3696
368.0000	0.0299	0.1660	0.0666	0.0307	-0.1270	-0.0101	0.0418	-0.0035	-0.0383	0.1783	1.2521	1.7989	-0.0399	0.0405	-2.5875	0.3721
376.0000	0.0285	0.1689	0.0770	0.0288	-0.1267	-0.0136	0.0441	0.0006	-0.0269	0.1799	1.2533	1.8293	-0.0241	0.0332	-2.6688	0.3726
384.0000	0.0274	0.1674	0.0798	0.0203	-0.1299	-0.0243	0.0099	-0.0016	-0.0131	0.1860	1.2548	1.8664	-0.0221	0.0391	-2.7529	0.3700
392.0000	0.0317	0.1831	0.0886	0.0151	-0.1367	-0.0279	-0.0074	0.0030	0.0069	0.1988	1.2651	1.9100	-0.0371	0.0541	-2.8274	0.3706
400.0000	0.0408	0.2169	0.1000	0.0194	-0.1305	-0.0160	0.0445	0.0232	0.0376	0.2204	1.2923	1.9685	-0.0370	0.0669	-2.8869	0.3821
408.0000	0.0483	0.2533	0.0819	0.0137	-0.1074	-0.0074	0.0955	0.0348	0.0605	0.2381	1.3217	2.0342	-0.0156	0.0770	-2.9458	0.3998
416.0000	0.0551	0.2815	0.0338	-0.0044	-0.0902	-0.0121	0.0677	0.0188	0.0612	0.2427	1.3422	2.0883	-0.0043	0.0843	-3.0095	0.4108
424.0000	0.0701	0.2961	-0.0005	-0.0045	-0.0888	-0.0114	0.0212	-0.0011	0.0622	0.2478	1.3695	2.1344	-0.0096	0.0852	-3.0655	0.4102
432.0000	0.0891	0.2946	-0.0039	0.0155	-0.0836	0.0016	0.0392	-0.0003	0.0813	0.2618	1.4076	2.1833	-0.0043	0.0825	-3.1149	0.3988
440.0000	0.0962	0.2848	-0.0059	0.0222	-0.0636	0.0089	0.0835	0.0113	0.0975	0.2696	1.4337	2.2252	0.0156	0.0838	-3.1706	0.3782
448.0000	0.0901	0.2816	-0.0183	0.0128	-0.0444	0.0056	0.0892	0.0214	0.1006	0.2661	1.4478	2.2559	0.0277	0.0918	-3.2232	0.3600
456.0000	0.0870	0.2888	-0.0218	0.0121	-0.0401	0.0041	0.0750	0.0314	0.1147	0.2670	1.4751	2.2916	0.0270	0.1036	-3.2546	0.3571
464.0000	0.0928	0.3003	-0.0147	0.0088	-0.0455	0.0050	0.0724	0.0373	0.1409	0.2721	1.5081	2.3274	0.0261	0.1141	-3.2768	0.3606
472.0000	0.0964	0.3186	-0.0128	-0.0272	-0.0453	0.0049	0.0706	0.0384	0.1488	0.2681	1.5208	2.3408	0.0294	0.1207	-3.3066	0.3584
480.0000	0.0914	0.3510	-0.0154	-0.0811	-0.0282	0.0118	0.0694	0.0464	0.1404	0.2643	1.5333	2.3486	0.0341	0.1282	-3.3227	0.3685
488.0000	0.0858	0.3853	-0.0166	-0.1130	-0.0030	0.0252	0.0817	0.0548	0.1456	0.2744	1.5792	2.3850	0.0374	0.1394	-3.2993	0.4070
496.0000	0.0871	0.3963	-0.0225	-0.1145	0.0086	0.0310	0.0924	0.0463	0.1586	0.2811	1.6321	2.4262	0.0349	0.1427	-3.2617	0.4420
504.0000	0.0903	0.3826	-0.0291	-0.1053	0.0101	0.0311	0.0924	0.0387	0.1547	0.2687	1.6486	2.4263	0.0329	0.1308	-3.2476	0.4367
512.0000	0.0844	0.3689	-0.0248	-0.1065	0.0251	0.0359	0.0970	0.0561	0.1468	0.2563	1.6501	2.4077	0.0425	0.1199	-3.2412	0.4122
520.0000	0.0647	0.3720	-0.0179	-0.1308	0.0436	0.0342	0.0965	0.0716	0.1560	0.2581	1.6816	2.4207	0.0520	0.1232	-3.2014	0.4052
528.0000	0.0386	0.3877	-0.0195	-0.1656	0.0318	0.0160	0.0735	0.0604	0.1631	0.2534	1.7289	2.4471	0.0403	0.1224	-3.1345	0.4005
536.0000	0.0188	0.4099	-0.0151	-0.1815	0.0024	0.0013	0.0585	0.0583	0.1463	0.2288	1.7501	2.4373	0.0179	0.0993	-3.0825	0.3680
544.0000	0.0091	0.4313	0.0088	-0.1783	-0.0027	0.0059	0.0738	0.0874	0.1239	0.2008	1.7447	2.3953	0.0066	0.0710	-3.0581	0.3202
552.0000	0.0032	0.4312	0.0381	-0.1811	0.0063	0.0157	0.0852	0.1083	0.1181	0.1766	1.7303	2.3465	0.0023	0.0564	-3.0463	0.2801
560.0000	-0.0051	0.3959	0.0586	-0.1874	-0.0077	0.0211	0.0857	0.1091	0.1209	0.1446	1.6913	2.2756	0.0044	0.0430	-3.0569	0.2383
568.0000	-0.0163	0.3455	0.0728	-0.1827	-0.0297	0.0285	0.1147	0.1276	0.1186	0.1054	1.6045	2.1626	0.0321	0.0171	-3.1186	0.1838
576.0000	-0.0266	0.3110	0.0838	-0.1877	-0.0310	0.0299	0.1484	0.1538	0.1109	0.0699	1.4826	2.0224	0.0660	-0.0098	-3.2293	0.1301
584.0000	-0.0320	0.2977	0.0938	-0.2181	-0.0324	0.0164	0.1294	0.1457	0.0989	0.0343	1.3527	1.8658	0.0534	-0.0305	-3.3632	0.0845
592.0000	-0.0336	0.2904	0.1063	-0.2415	-0.0490	0.0076	0.0998	0.1365	0.0830	-0.0077	1.2159	1.6807	0.0076	-0.0566	-3.5198	0.0356
600.0000	-0.0349	0.2751	0.1069	-0.2367	-0.0507	0.0148	0.1222	0.1730	0.0676	-0.0482	1.0563	1.4679	0.0004	-0.0913	-3.7201	-0.0208
608.0000	-0.0307	0.2374	0.0812	-0.2258	-0.0384	0.0128	0.1345	0.2032	0.0527	-0.0832	0.8741	1.2404	0.0348	-0.1241	-3.9630	-0.0801
616.0000	-0.0138	0.1670	0.0540	-0.2075	-0.0576	-0.0074	0.0792	0.1726	0.0373	-0.1203	0.6881	0.9962	0.0443	-0.1552	-4.2290	-0.1436
624.0000	0.0052	0.0754	0.0477	-0.1593	-0.0991	-0.0168	0.0449	0.1327	0.0287	-0.1578	0.5126	0.7389	0.0189	-0.1894	-4.5142	-0.2110
632.0000	0.0066	-0.0088	0.0209	-0.1158	-0.1073	-0.0137	0.0878	0.1239	0.0283	-0.1875	0.3422	0.4881	0.0068	-0.2201	-4.8232	-0.2799
640.0000	-0.0065	-0.0634	-0.0663	-0.1178	-0.0921	-0.0322	0.1049	0.0982	0.0224	-0.2160	0.1656	0.2396	0.0098	-0.2478	-5.1411	-0.3634
648.0000	-0.0108	-0.0827	-0.1647	-0.1046	-0.1028	-0.0683	0.0509	0.0582	0.0055	-0.2526	-0.0066	-0.0256	-0.0051	-0.2853	-5.4433	-0.4707
656.0000	0.0017	-0.0915	-0.2120	0.0086	-0.1182	-0.0883	0.0397	0.0806	-0.0096	-0.2878	-0.1393	-0.2829	-0.0277	-0.3256	-5.7087	-0.5712
664.0000	0.0200	-0.1617	-0.2410	0.1856	-0.0968	-0.1057	0.1006	0.1364	-0.0159	-0.3072	-0.2082	-0.4940	-0.0369	-0.3433	-5.8998	-0.6239
672.0000	0.0360	-0.3543	-0.3099	0.3158	-0.0824	-0.1562	0.1085	0.1096	-0.0174	-0.3123	-0.2204	-0.6748	-0.0502	-0.3399	-5.9518	-0.6253
680.0000	0.0416	-0.6135	-0.3880	0.3323	-0.1252	-0.2137	0.0485	0.0203	-0.0128	-0.3111	-0.1845	-0.8295	-0.0751	-0.3401	-5.8053	-0.5858
688.0000	0.0197	-0.7916	-0.4096	0.2092	-0.1696	-0.2244	0.0626	0.0024	-0.0021	-0.3033	-0.0813	-0.8663	-0.0848	-0.3429	-5.4411	-0.4942
696.0000	-0.0317	-0.8230	-0.3785	-0.0364	-0.1411	-0.1945	0.1823	0.0656	0.0023	-0.2837	0.1044	-0.7073	-0.0756	-0.3269	-4.8933	-0.3521
704.0000	-0.0884	-0.7939	-0.3428	-0.2852	-0.0687	-0.1666	0.2768	0.1014	-0.0033	-0.2491	0.3448	-0.4255	-0.0722	-0.2944	-4.2417	-0.1989
712.0000	-0.1328	-0.7948	-0.3187	-0.4042	-0.0241	-0.1495	0.2802	0.0821	-0.0037	-0.2031	0.5892	-0.1482	-0.0768	-0.2642	-3.5669	-0.0671
720.0000	-0.1763	-0.8026	-0.2950	-0.4199	-0.0110	-0.1291	0.2528	0.0605	0.0070	-0.1539	0.8028	0.0968	-0.0852	-0.2358	-2.8888	0.0474
728.0000	-0.2361	-0.7716	-0.2675	-0.4569	0.0109	-0.1078	0.2403	0.0401	0.0127	-0.1024	0.9662	0.3256	-0.1091	-0.2009	-2.1730	0.1492
736.0000	-0.3140	-0.7331	-0.2371	-0.5273	0.0525	-0.0911	0.2345	0.0003	0.0056	-0.0444	1.0789	0.5052	-0.1287	-0.1654	-1.4144	0.2295
744.0000	-0.3981	-0.7200	-0.2001	-0.5359	0.0955	-0.0729	0.2233	-0.0300	-0.0012	0.0088	1.1858	0.6385	-0.1020	-0.1344	-0.6718	0.2965
752.0000	-0.4694	-0.6874	-0.1531	-0.4488	0.1271	-0.0528	0.1889	-0.0310	0.0039	0.0351	1.3411	0.8231	-0.0544	-0.1035	0.0002	0.3663
760.0000	-0.5173	-0.5958	-0.1009	-0.3216	0.1455	-0.0387	0.1142	-0.0406	0.0162	0.0372	1.5200	1.1100	-0.0521	-0.0765	0.6124	0.4270
768.0000	-0.5499	-0.4805	-0.0592	-0.2127	0.1499	-0.0320	0.0183	-0.0867	0.0223	0.0368	1.6302	1.4061	-0.0799	-0.0592	1.2008	0.4567
776.0000	-0.5673	-0.3641	-0.0412	-0.1592	0.1354	-0.0312	-0.0706	-0.1459	0.0146	0.0307	1.6358	1.5983	-0.0706	-0.0391	1.7461	0.4605
784.0000	-0.5388	-0.2017	-0.0380	-0.1688	0.1038	-0.0376	-0.1488	-0.1893	0.0032	-0.0013	1.5939	1.6759	-0.0315	-0.0060	2.1680	0.4546
792.0000	-0.4502	0.0052	-0.0363	-0.1923	0.0751	-0.0482	-0.2076	-0.2104	0.0066	-0.0480	1.5537	1.6819	-0.0157	0.0248	2.4103	0.4392
800.0000	-0.3469	0.1513	-0.0410	-0.1755	0.0680	-0.0564	-0.2382	-0.2128	0.0224	-0.0786	1.5007	1.6419	-0.0172	0.0406	2.5150	0.4138
808.0000	-0.2803	0.1668	-0.0452	-0.1375	0.0673	-0.0575	-0.2752	-0.2025	0.0306	-0.0922	1.4201	1.5721	-0.0120	0.0547	2.5783	0.3902
816.0000	-0.2425	0.1141	-0.0160	-0.1276	0.0460	-0.0479	-0.3410	-0.1789	0.0264	-0.1092	1.3250	1.4777	-0.0242	0.0739	2.6331	0.3674
824.0000	-0.2013	0.0717	0.0422	-0.1440	0.0108	-0.0348	-0.3795	-0.1375	0.0200	-0.1341	1.2097	1.3379	-0.0599	0.0781	2.6220	0.3243
832.0000	-0.1565	0.0314	0.0661	-0.1524	-0.0111	-0.0386	-0.3425	-0.1002	0.0093	-0.1651	1.0484	1.1407	-0.0717	0.0550	2.5021	0.2502
840.0000	-0.1167	-0.0263	0.0256	-0.1293	-0.0162	-0.0616	-0.2742	-0.1027	-0.0103	-0.2092	0.8523	0.9107	-0.0523	0.0198	2.3116	0.1592
848.0000	-0.0721	-0.0701	-0.0376	-0.0571	-0.0208	-0.0767	-0.2284	-0.1403	-0.0278	-0.2601	0.6594	0.6695	-0.0496	-0.0147	2.0983	0.0674
856.0000	-0.0198	-0.0927	-0.0901	0.0566	-0.0336	-0.0727	-0.2016	-0.1806	-0.0419	-0.3020	0.4740	0.4086	-0.0666	-0.0527	1.8512	-0.0284
864.0000	0.0255	-0.1455	-0.1344	0.1564	-0.0559	-0.0711	-0.1942	-0.2184	-0.0680	-0.3383	0.2752	0.1260	-0.0664	-0.0939	1.5518	-0.1404
872.0000	0.0553	-0.2532	-0.1525	0.2004	-0.0799	-0.0791	-0.2167	-0.2518	-0.0978	-0.3742	0.0744	-0.1479	-0.0672	-0.1276	1.2402	-0.2627
880.0000	0.0648	-0.3801	-0.1319	0.2116	-0.0863	-0.0777	-0.2220	-0.2477	-0.1086	-0.3894	-0.0916	-0.3750	-0.1080	-0.1511	0.9749	-0.3655
888.0000	0.0445	-0.4895	-0.1204	0.2218	-0.0714	-0.0706	-0.1666	-0.2032	-0.1184	-0.3740	-0.2147	-0.5343	-0.1566	-0.1698	0.7649	-0.4264
896.0000	0.0130	-0.5563	-0.1460	0.2297	-0.0592	-0.0772	-0.1042	-0.1745	-0.1593	-0.3573	-0.3198	-0.6339	-0.1610	-0.1844	0.5823	-0.4547
904.0000	0.0134	-0.5397	-0.1447	0.2415	-0.0568	-0.0815	-0.0955	-0.1803	-0.2013	-0.3520	-0.4196	-0.7061	-0.1372	-0.1897	0.4184	-0.4651
912.0000	0.0499	-0.4342	-0.0744	0.2676	-0.0411	-0.0561	-0.1021	-0.1699	-0.1923	-0.3253	-0.4989	-0.7698	-0.1228	-0.1784	0.2943	-0.4472
920.0000	0.0794	-0.3184	-0.0017	0.2754	-0.0100	-0.0197	-0.0794	-0.1285	-0.1511	-0.2635	-0.5434	-0.8039	-0.1115	-0.1458	0.2264	-0.3924
928.0000	0.0821	-0.2730	0.0167	0.2314	0.0082	-0.0042	-0.0629	-0.1022	-0.1317	-0.2034	-0.5613	-0.7881	-0.0907	-0.0984	0.2024	-0.3247
936.0000	0.0764	-0.2866	0.0198	0.1663	0.0100	-0.0008	-0.0760	-0.0995	-0.1317	-0.1669	-0.5668	-0.7423	-0.0722	-0.0528	0.1985	-0.2684
944.0000	0.0660	-0.2939	0.0380	0.1210	0.0157	0.0049	-0.0799	-0.0862	-0.1204	-0.1323	-0.5561	-0.6895	-0.0599	-0.0191	0.2107	-0.2134
952.0000	0.0416	-0.2610	0.0394	0.0845	0.0188	-0.0021	-0.0675	-0.0680	-0.1061	-0.0893	-0.5184	-0.6206	-0.0512	0.0053	0.2510	-0.1474
960.0000	0.0197	-0.1917	0.0235	0.0439	0.0042	-0.0218	-0.0751	-0.0701	-0.1050	-0.0576	-0.4641	-0.5317	-0.0593	0.0216	0.3147	-0.0870
968.0000	0.0224	-0.1041	0.0345	0.0231	-0.0062	-0.0240	-0.0910	-0.0684	-0.0996	-0.0419	-0.4182	-0.4509	-0.0799	0.0276	0.3743	-0.0493
976.0000	0.0427	-0.0312	0.0691	0.0267	0.0088	-0.0057	-0.0770	-0.0384	-0.0777	-0.0268	-0.3871	-0.3961	-0.0779	0.0300	0.4119	-0.0264
984.0000	0.0663	-0.0064	0.0856	0.0244	0.0233	-0.0002	-0.0558	-0.0136	-0.0561	-0.0103	-0.3593	-0.3543	-0.0487	0.0377	0.4341	-0.0107
992.0000	0.0887	-0.0327	0.0829	0.0080	0.0099	-0.0163	-0.0684	-0.0225	-0.0440	-0.0023	-0.3323	-0.3162	-0.0293	0.0460	0.4497	-0.0089
1000.0000	0.0973	-0.0821	0.0818	-0.0034	-0.0111	-0.0293	-0.0915	-0.0371	-0.0342	-0.0017	-0.3102	-0.2866	-0.0286	0.0465	0.4609	-0.0180
1008.0000	0.0857	-0.1156	0.0789	-0.0051	-0.0096	-0.0280	-0.0860	-0.0333	-0.0272	-0.0004	-0.2831	-0.2561	-0.0232	0.0460	0.4780	-0.0228
1016.0000	0.0767	-0.1042	0.0754	-0.0031	0.0095	-0.0223	-0.0669	-0.0298	-0.0227	0.0066	-0.2391	-0.2090	-0.0196	0.0557	0.5122	-0.0192
1024.0000	0.0822	-0.0562	0.0817	-0.0011	0.0238	-0.0204	-0.0644	-0.0411	-0.0153	0.0186	-0.1898	-0.1552	-0.0367	0.0691	0.5526	-0.0169
1032.0000	0.0777	-0.0149	0.0797	-0.0110	0.0197	-0.0275	-0.0776	-0.0548	-0.0161	0.0234	-0.1586	-0.1190	-0.0501	0.0699	0.5752	-0.0235
1040.0000	0.0565	-0.0039	0.0579	-0.0343	-0.0022	-0.0405	-0.0935	-0.0593	-0.0338	0.0106	-0.1497	-0.1031	-0.0352	0.0567	0.5755	-0.0395
1048.0000	0.0491	-0.0012	0.0566	-0.0430	-0.0224	-0.0404	-0.1007	-0.0503	-0.0422	-0.0044	-0.1510	-0.0923	-0.0219	0.0440	0.5687	-0.0578
1056.0000	0.0576	0.0112	0.0971	-0.0307	-0.0203	-0.0209	-0.0868	-0.0259	-0.0218	-0.0001	-0.1550	-0.0779	-0.0372	0.0423	0.5623	-0.0658
1064.0000	0.0498	0.0227	0.1295	-0.0345	-0.0058	-0.0072	-0.0593	0.0001	-0.0032	0.0104	-0.1639	-0.0656	-0.0502	0.0474	0.5465	-0.0625
1072.0000	0.0321	0.0309	0.1173	-0.0616	-0.0064	-0.0171	-0.0466	0.0059	-0.0113	0.0031	-0.1791	-0.0648	-0.0340	0.0483	0.5135	-0.0627
1080.0000	0.0424	0.0396	0.0910	-0.0678	-0.0228	-0.0324	-0.0563	-0.0112	-0.0226	-0.0124	-0.1973	-0.0796	-0.0143	0.0412	0.4693	-0.0704
1088.0000	0.0720	0.0206	0.0757	-0.0421	-0.0341	-0.0344	-0.0658	-0.0346	-0.0222	-0.0170	-0.2130	-0.1032	-0.0113	0.0314	0.4242	-0.0702
1096.0000	0.0831	-0.0453	0.0632	-0.0243	-0.0337	-0.0288	-0.0607	-0.0462	-0.0279	-0.0178	-0.2229	-0.1237	-0.0073	0.0254	0.3800	-0.0589
1104.0000	0.0770	-0.1077	0.0604	-0.0268	-0.0298	-0.0226	-0.0501	-0.0368	-0.0327	-0.0199	-0.2281	-0.1344	0.0010	0.0230	0.3352	-0.0533
1112.0000	0.0688	-0.1060	0.0702	-0.0329	-0.0298	-0.0197	-0.0481	-0.0214	-0.0171	-0.0125	-0.2337	-0.1379	-0.0074	0.0171	0.2905	-0.0616
1120.0000	0.0430	-0.0555	0.0573	-0.0533	-0.0401	-0.0307	-0.0599	-0.0281	-0.0139	-0.0094	-0.2448	-0.1449	-0.0253	0.0025	0.2448	-0.0785
1128.0000	-0.0004	-0.0020	0.0191	-0.0935	-0.0558	-0.0474	-0.0742	-0.0451	-0.0541	-0.0343	-0.2607	-0.1619	-0.0255	-0.0142	0.1953	-0.1009
1136.0000	-0.0206	0.0536	0.0162	-0.1114	-0.0536	-0.0375	-0.0679	-0.0238	-0.0840	-0.0579	-0.2693	-0.1760	-0.0178	-0.0173	0.1495	-0.1209
1144.0000	-0.0039	0.1125	0.0584	-0.0865	-0.0271	-0.0000	-0.0395	0.0309	-0.0520	-0.0342	-0.2603	-0.1682	-0.0310	-0.0017	0.1181	-0.1234
1152.0000	0.0164	0.1292	0.0677	-0.0620	-0.0080	0.0209	-0.0174	0.0463	-0.0130	0.0089	-0.2463	-0.1525	-0.0513	0.0154	0.0890	-0.1123
1160.0000	0.0277	0.0721	0.0140	-0.0596	-0.0154	0.0079	-0.0141	-0.0023	-0.0323	0.0092	-0.2491	-0.1667	-0.0432	0.0154	0.0368	-0.1083
1168.0000	0.0474	-0.0245	-0.0354	-0.0433	-0.0230	-0.0029	-0.0094	-0.0483	-0.0695	-0.0236	-0.2625	-0.2109	-0.0132	0.0045	-0.0321	-0.1094
1176.0000	0.0666	-0.1072	-0.0383	-0.0037	-0.0101	0.0099	0.0027	-0.0431	-0.0648	-0.0349	-0.2595	-0.2413	0.0041	0.0016	-0.0807	-0.0966
1184.0000	0.0610	-0.1430	-0.0270	0.0179	0.0030	0.0220	-0.0006	-0.0200	-0.0421	-0.0206	-0.2400	-0.2408	0.0036	0.0080	-0.0973	-0.0802
1192.0000	0.0410	-0.1091	-0.0223	0.0077	-0.0008	0.0180	-0.0217	-0.0147	-0.0389	-0.0091	-0.2284	-0.2368	0.0060	0.0116	-0.1067	-0.0839
1200.0000	0.0273	-0.0163	-0.0140	-0.0063	-0.0051	0.0151	-0.0301	-0.0115	-0.0374	0.0017	-0.2252	-0.2396	0.0152	0.0113	-0.1181	-0.0922
1208.0000	0.0125	0.0657	-0.0135	-0.0131	0.0031	0.0220	-0.0148	0.0059	-0.0266	0.0191	-0.2084	-0.2281	0.0190	0.0144	-0.1128	-0.0730
1216.0000	-0.0066	0.0751	-0.0349	-0.0211	0.0122	0.0256	-0.0017	0.0198	-0.0320	0.0228	-0.1792	-0.2016	0.0177	0.0178	-0.0896	-0.0341
1224.0000	-0.0108	0.0298	-0.0531	-0.0251	0.0149	0.0222	-0.0098	0.0152	-0.0486	0.0107	-0.1553	-0.1811	0.0178	0.0151	-0.0701	-0.0044
1232.0000	-0.0035	-0.0157	-0.0498	-0.0217	0.0185	0.0237	-0.0247	0.0032	-0.0435	0.0120	-0.1323	-0.1648	0.0144	0.0113	-0.0577	0.0155
1240.0000	-0.0133	-0.0419	-0.0501	-0.0244	0.0242	0.0321	-0.0257	-0.0001	-0.0288	0.0283	-0.0990	-0.1391	0.0041	0.0117	-0.0395	0.0357
1248.0000	-0.0378	-0.0479	-0.0688	-0.0363	0.0232	0.0341	-0.0185	0.0054	-0.0400	0.0269	-0.0725	-0.1186	0.0002	0.0090	-0.0238	0.0439
1256.0000	-0.0454	-0.0195	-0.0791	-0.0430	0.0141	0.0258	-0.0248	0.0110	-0.0611	0.0052	-0.0712	-0.1209	0.0112	-0.0018	-0.0278	0.0297
1264.0000	-0.0336	0.0402	-0.0612	-0.0375	0.0070	0.0224	-0.0422	0.0183	-0.0529	-0.0027	-0.0794	-0.1270	0.0236	-0.0091	-0.0407	0.0109
1272.0000	-0.0269	0.0922	-0.0304	-0.0239	0.0093	0.0345	-0.0427	0.0405	-0.0251	0.0142	-0.0743	-0.1111	0.0239	-0.0017	-0.0409	0.0060
1280.0000	-0.0283	0.1046	-0.0084	-0.0090	0.0131	0.0448	-0.0258	0.0707	-0.0105	0.0331	-0.0622	-0.0830	0.0192	0.0116	-0.0347	0.0096
1288.0000	-0.0215	0.0813	-0.0033	-0.0047	0.0031	0.0301	-0.0274	0.0760	-0.0063	0.0378	-0.0586	-0.0658	0.0213	0.0137	-0.0434	0.0101
1296.0000	-0.0053	0.0411	-0.0104	-0.0129	-0.0169	0.0038	-0.0514	0.0494	0.0057	0.0320	-0.0634	-0.0627	0.0283	0.0026	-0.0710	0.0030
1304.0000	0.0084	0.0028	-0.0158	-0.0134	-0.0211	0.0030	-0.0499	0.0321	0.0195	0.0251	-0.0718	-0.0647	0.0354	-0.0079	-0.1073	-0.0119
1312.0000	0.0157	-0.0089	-0.0128	0.0030	0.0001	0.0276	-0.0075	0.0484	0.0234	0.0252	-0.0860	-0.0667	0.0452	-0.0081	-0.1481	-0.0299
1320.0000	0.0204	0.0221	-0.0128	0.0140	0.0224	0.0400	0.0252	0.0667	0.0230	0.0323	-0.1056	-0.0663	0.0569	-0.0025	-0.1944	-0.0441
1328.0000	0.0271	0.0798	-0.0222	0.0079	0.0255	0.0290	0.0181	0.0617	0.0248	0.0372	-0.1262	-0.0646	0.0618	0.0016	-0.2450	-0.0567
1336.0000	0.0396	0.1259	-0.0263	0.0057	0.0180	0.0238	0.0028	0.0554	0.0255	0.0398	-0.1454	-0.0651	0.0580	0.0066	-0.2981	-0.0719
1344.0000	0.0535	0.1331	-0.0170	0.0170	0.0110	0.0384	0.0018	0.0647	0.0255	0.0513	-0.1618	-0.0665	0.0550	0.0157	-0.3521	-0.0822
1352.0000	0.0582	0.1049	-0.0075	0.0222	0.0022	0.0532	-0.0017	0.0717	0.0302	0.0674	-0.1776	-0.0676	0.0598	0.0211	-0.4077	-0.0804
1360.0000	0.0550	0.0678	-0.0098	0.0147	-0.0049	0.0546	-0.0105	0.0655	0.0363	0.0688	-0.1986	-0.0753	0.0686	0.0166	-0.4684	-0.0741
1368.0000	0.0568	0.0498	-0.0243	0.0093	-0.0032	0.0495	-0.0095	0.0551	0.0367	0.0560	-0.2211	-0.0916	0.0733	0.0111	-0.5310	-0.0690
1376.0000	0.0668	0.0574	-0.0486	0.0096	-0.0019	0.0429	-0.0073	0.0405	0.0343	0.0498	-0.2326	-0.1048	0.0704	0.0128	-0.5836	-0.0569
1384.0000	0.0758	0.0786	-0.0683	0.0108	-0.0076	0.0364	-0.0178	0.0214	0.0378	0.0537	-0.2377	-0.1106	0.0643	0.0130	-0.6236	-0.0391
1392.0000	0.0796	0.1020	-0.0621	0.0201	-0.0047	0.0374	-0.0230	0.0168	0.0466	0.0539	-0.2570	-0.1205	0.0611	0.0037	-0.6642	-0.0327
1400.0000	0.0812	0.1228	-0.0373	0.0380	0.0167	0.0463	-0.0060	0.0355	0.0506	0.0506	-0.2914	-0.1380	0.0601	-0.0041	-0.7120	-0.0405
1408.0000	0.0825	0.1304	-0.0262	0.0495	0.0385	0.0524	0.0183	0.0566	0.0451	0.0545	-0.3191	-0.1512	0.0572	0.0006	-0.7528	-0.0441
1416.0000	0.0849	0.1125	-0.0343	0.0523	0.0453	0.0510	0.0327	0.0637	0.0386	0.0620	-0.3310	-0.1553	0.0559	0.0114	-0.7733	-0.0360
1424.0000	0.0912	0.0728	-0.0370	0.0588	0.0441	0.0462	0.0363	0.0592	0.0409	0.0617	-0.3361	-0.1569	0.0604	0.0180	-0.7754	-0.0287
1432.0000	0.0955	0.0337	-0.0279	0.0649	0.0431	0.0407	0.0267	0.0443	0.0481	0.0553	-0.3363	-0.1565	0.0630	0.0198	-0.7646	-0.0297
1440.0000	0.0873	0.0186	-0.0216	0.0590	0.0432	0.0386	0.0097	0.0259	0.0501	0.0518	-0.3253	-0.1484	0.0550	0.0157	-0.7400	-0.0317
1448.0000	0.0685	0.0403	-0.0147	0.0506	0.0486	0.0460	0.0047	0.0264	0.0492	0.0534	-0.3058	-0.1323	0.0446	0.0049	-0.7008	-0.0281
1456.0000	0.0545	0.0968	0.0057	0.0530	0.0586	0.0559	0.0108	0.0481	0.0556	0.0594	-0.2813	-0.1089	0.0417	-0.0012	-0.6480	-0.0186
1464.0000	0.0531	0.1625	0.0293	0.0576	0.0627	0.0523	0.0077	0.0615	0.0654	0.0688	-0.2515	-0.0790	0.0397	0.0083	-0.5863	-0.0064
1472.0000	0.0550	0.1935	0.0365	0.0549	0.0628	0.0357	0.0032	0.0554	0.0631	0.0744	-0.2240	-0.0520	0.0313	0.0224	-0.5263	0.0034
1480.0000	0.0500	0.1647	0.0284	0.0536	0.0703	0.0201	0.0180	0.0502	0.0469	0.0687	-0.2075	-0.0369	0.0247	0.0238	-0.4755	0.0104
1488.0000	0.0430	0.0992	0.0179	0.0611	0.0764	0.0109	0.0333	0.0513	0.0338	0.0563	-0.1938	-0.0263	0.0254	0.0174	-0.4280	0.0201
1496.0000	0.0449	0.0443	0.0112	0.0694	0.0643	0.0071	0.0212	0.0439	0.0339	0.0488	-0.1742	-0.0127	0.0259	0.0171	-0.3797	0.0314
1504.0000	0.0512	0.0249	0.0071	0.0696	0.0450	0.0090	0.0012	0.0320	0.0377	0.0503	-0.1589	-0.0028	0.0228	0.0220	-0.3401	0.0335
1512.0000	0.0455	0.0383	-0.0014	0.0605	0.0381	0.0096	-0.0012	0.0314	0.0334	0.0552	-0.1526	0.0009	0.0202	0.0235	-0.3103	0.0254
1520.0000	0.0296	0.0774	-0.0170	0.0489	0.0377	0.0014	0.0006	0.0381	0.0249	0.0561	-0.1377	0.0122	0.0153	0.0221	-0.2717	0.0205
1528.0000	0.0251	0.1290	-0.0238	0.0495	0.0350	-0.0029	-0.0010	0.0448	0.0236	0.0515	-0.1087	0.0353	0.0058	0.0221	-0.2168	0.0240
1536.0000	0.0376	0.1593	-0.0074	0.0679	0.0400	0.0114	0.0088	0.0548	0.0306	0.0464	-0.0850	0.0550	0.0038	0.0237	-0.1636	0.0284
1544.0000	0.0472	0.1388	0.0127	0.0869	0.0531	0.0278	0.0160	0.0592	0.0368	0.0455	-0.0696	0.0673	0.0144	0.0277	-0.1202	0.0323
1552.0000	0.0450	0.0850	0.0083	0.0920	0.0570	0.0231	-0.0066	0.0443	0.0385	0.0477	-0.0411	0.0865	0.0206	0.0335	-0.0696	0.0418
1560.0000	0.0445	0.0484	-0.0113	0.0908	0.0539	0.0075	-0.0348	0.0232	0.0433	0.0512	0.0050	0.1178	0.0118	0.0364	-0.0031	0.0540
1568.0000	0.0466	0.0550	-0.0229	0.0886	0.0589	0.0021	-0.0337	0.0123	0.0550	0.0563	0.0497	0.1513	0.0018	0.0334	0.0673	0.0611
1576.0000	0.0354	0.0881	-0.0306	0.0782	0.0617	0.0031	-0.0269	-0.0009	0.0628	0.0592	0.0863	0.1816	0.0003	0.0248	0.1346	0.0634
1584.0000	0.0164	0.1224	-0.0402	0.0690	0.0501	0.0027	-0.0380	-0.0169	0.0550	0.0526	0.1172	0.2057	-0.0009	0.0095	0.1985	0.0644
1592.0000	0.0107	0.1424	-0.0332	0.0800	0.0464	0.0107	-0.0345	-0.0062	0.0368	0.0410	0.1353	0.2170	-0.0039	-0.0057	0.2518	0.0643
1600.0000	0.0092	0.1342	-0.0096	0.0966	0.0667	0.0253	-0.0063	0.0255	0.0228	0.0380	0.1434	0.2213	-0.0023	-0.0042	0.2952	0.0665
1608.0000	-0.0165	0.0920	-0.0023	0.0891	0.0819	0.0247	-0.0023	0.0280	0.0151	0.0439	0.1653	0.2371	-0.0016	0.0140	0.3503	0.0741
1616.0000	-0.0573	0.0382	-0.0196	0.0667	0.0704	0.0066	-0.0310	-0.0010	0.0066	0.0432	0.2075	0.2667	-0.0097	0.0239	0.4276	0.0805
1624.0000	-0.0755	0.0094	-0.0309	0.0591	0.0562	-0.0071	-0.0394	-0.0087	-0.0005	0.0320	0.2504	0.2973	-0.0165	0.0157	0.5124	0.0808
1632.0000	-0.0684	0.0197	-0.0261	0.0608	0.0545	-0.0122	-0.0235	0.0093	0.0019	0.0243	0.2894	0.3308	-0.0123	0.0114	0.5980	0.0844
1640.0000	-0.0661	0.0535	-0.0251	0.0505	0.0425	-0.0211	-0.0334	0.0033	0.0080	0.0264	0.3357	0.3757	-0.0070	0.0211	0.6934	0.0941
1648.0000	-0.0765	0.0895	-0.0270	0.0380	0.0155	-0.0270	-0.0627	-0.0258	0.0030	0.0265	0.3750	0.4150	-0.0103	0.0239	0.7860	0.0943
1656.0000	-0.0806	0.1124	-0.0155	0.0399	0.0027	-0.0162	-0.0614	-0.0277	-0.0136	0.0173	0.3817	0.4260	-0.0139	0.0124	0.8479	0.0797
1664.0000	-0.0739	0.1107	-0.0013	0.0438	0.0087	-0.0034	-0.0392	-0.0047	-0.0276	0.0082	0.3668	0.4190	-0.0110	0.0074	0.8816	0.0692
1672.0000	-0.0705	0.0838	-0.0024	0.0349	0.0047	-0.0107	-0.0386	-0.0030	-0.0324	0.0086	0.3564	0.4157	-0.0077	0.0145	0.9098	0.0710
1680.0000	-0.0734	0.0478	-0.0044	0.0229	-0.0143	-0.0282	-0.0461	-0.0207	-0.0347	0.0125	0.3444	0.4101	-0.0089	0.0127	0.9275	0.0683
1688.0000	-0.0724	0.0218	0.0090	0.0186	-0.0243	-0.0320	-0.0301	-0.0208	-0.0401	0.0079	0.3103	0.3846	-0.0097	-0.0040	0.9127	0.0521
1696.0000	-0.0617	0.0114	0.0252	0.0193	-0.0213	-0.0209	-0.0100	-0.0075	-0.0465	-0.0069	0.2581	0.3421	-0.0033	-0.0193	0.8689	0.0336
1704.0000	-0.0437	0.0116	0.0343	0.0241	-0.0215	-0.0083	-0.0106	-0.0072	-0.0478	-0.0224	0.1998	0.2916	0.0116	-0.0272	0.8140	0.0167
1712.0000	-0.0267	0.0145	0.0464	0.0310	-0.0278	-0.0013	-0.0151	-0.0133	-0.0387	-0.0302	0.1356	0.2324	0.0239	-0.0322	0.7522	-0.0049
1720.0000	-0.0222	0.0109	0.0592	0.0274	-0.0320	-0.0037	-0.0089	-0.0115	-0.0237	-0.0316	0.0740	0.1722	0.0177	-0.0307	0.6876	-0.0243
1728.0000	-0.0300	-0.0008	0.0575	0.0129	-0.0347	-0.0180	-0.0051	-0.0151	-0.0170	-0.0341	0.0318	0.1266	0.0001	-0.0231	0.6314	-0.0315
1736.0000	-0.0349	-0.0089	0.0466	0.0062	-0.0364	-0.0364	-0.0080	-0.0314	-0.0221	-0.0403	0.0019	0.0887	-0.0007	-0.0238	0.5751	-0.0378
1744.0000	-0.0306	-0.0069	0.0404	0.0100	-0.0331	-0.0467	-0.0089	-0.0427	-0.0232	-0.0459	-0.0338	0.0400	0.0170	-0.0359	0.5005	-0.0558
1752.0000	-0.0293	-0.0099	0.0336	0.0062	-0.0301	-0.0456	-0.0106	-0.0417	-0.0118	-0.0464	-0.0662	-0.0115	0.0202	-0.0449	0.4218	-0.0731
1760.0000	-0.0342	-0.0273	0.0242	-0.0034	-0.0360	-0.0354	-0.0124	-0.0389	-0.0024	-0.0437	-0.0786	-0.0463	0.0026	-0.0486	0.3660	-0.0764
1768.0000	-0.0300	-0.0389	0.0286	0.0022	-0.0440	-0.0202	-0.0031	-0.0324	-0.0047	-0.0437	-0.0887	-0.0771	0.0001	-0.0576	0.3172	-0.0778
1776.0000	-0.0140	-0.0288	0.0426	0.0179	-0.0427	-0.0114	0.0077	-0.0180	-0.0049	-0.0496	-0.1209	-0.1286	0.0212	-0.0670	0.2397	-0.0899
1784.0000	-0.0053	-0.0190	0.0397	0.0202	-0.0374	-0.0166	-0.0002	-0.0129	0.0026	-0.0573	-0.1596	-0.1883	0.0276	-0.0641	0.1446	-0.1000
1792.0000	-0.0110	-0.0341	0.0238	0.0136	-0.0380	-0.0223	-0.0118	-0.0258	0.0017	-0.0593	-0.1783	-0.2267	0.0078	-0.0566	0.0703	-0.0956
1800.0000	-0.0160	-0.0573	0.0247	0.0195	-0.0402	-0.0119	-0.0008	-0.0311	-0.0120	-0.0547	-0.1872	-0.2500	-0.0010	-0.0594	0.0154	-0.0881
1808.0000	-0.0143	-0.0594	0.0379	0.0294	-0.0365	0.0028	0.0149	-0.0149	-0.0197	-0.0516	-0.2089	-0.2837	0.0162	-0.0681	-0.0502	-0.0912
1816.0000	-0.0151	-0.0433	0.0358	0.0222	-0.0305	-0.0017	0.0057	-0.0051	-0.0136	-0.0535	-0.2334	-0.3239	0.0270	-0.0722	-0.1247	-0.0981
1824.0000	-0.0181	-0.0264	0.0272	0.0086	-0.0272	-0.0192	-0.0105	-0.0188	-0.0059	-0.0514	-0.2379	-0.3473	0.0143	-0.0734	-0.1823	-0.0971
1832.0000	-0.0158	-0.0122	0.0360	0.0101	-0.0254	-0.0247	-0.0019	-0.0282	-0.0014	-0.0406	-0.2261	-0.3540	0.0025	-0.0740	-0.2227	-0.0903
1840.0000	-0.0141	-0.0052	0.0457	0.0171	-0.0237	-0.0163	0.0192	-0.0141	0.0035	-0.0326	-0.2155	-0.3606	0.0067	-0.0695	-0.2657	-0.0853
1848.0000	-0.0212	-0.0168	0.0319	0.0134	-0.0238	-0.0127	0.0223	-0.0027	0.0037	-0.0370	-0.2052	-0.3675	0.0098	-0.0630	-0.3125	-0.0804
1856.0000	-0.0256	-0.0386	0.0141	0.0114	-0.0269	-0.0194	0.0052	-0.0159	-0.0012	-0.0441	-0.1833	-0.3632	0.0000	-0.0632	-0.3487	-0.0706
1864.0000	-0.0161	-0.0483	0.0184	0.0249	-0.0319	-0.0260	-0.0135	-0.0347	0.0036	-0.0419	-0.1527	-0.3506	-0.0100	-0.0678	-0.3755	-0.0590
1872.0000	-0.0060	-0.0438	0.0308	0.0381	-0.0349	-0.0252	-0.0188	-0.0377	0.0207	-0.0365	-0.1286	-0.3424	-0.0081	-0.0674	-0.4063	-0.0538
1880.0000	-0.0111	-0.0341	0.0313	0.0357	-0.0308	-0.0158	-0.0080	-0.0330	0.0305	-0.0365	-0.1139	-0.3390	0.0003	-0.0592	-0.4416	-0.0538
1888.0000	-0.0236	-0.0101	0.0288	0.0300	-0.0229	0.0003	0.0042	-0.0315	0.0256	-0.0347	-0.0961	-0.3284	0.0041	-0.0459	-0.4669	-0.0486
1896.0000	-0.0294	0.0315	0.0313	0.0331	-0.0235	0.0109	-0.0021	-0.0275	0.0205	-0.0244	-0.0663	-0.3054	0.0010	-0.0314	-0.4762	-0.0352
1904.0000	-0.0295	0.0579	0.0298	0.0355	-0.0349	0.0039	-0.0191	-0.0205	0.0195	-0.0170	-0.0324	-0.2786	-0.0033	-0.0235	-0.4800	-0.0256
1912.0000	-0.0275	0.0408	0.0265	0.0329	-0.0422	-0.0100	-0.0219	-0.0203	0.0145	-0.0215	-0.0050	-0.2563	-0.0064	-0.0245	-0.4900	-0.0269
1920.0000	-0.0198	0.0018	0.0332	0.0373	-0.0367	-0.0105	-0.0129	-0.0256	0.0112	-0.0259	0.0172	-0.2371	-0.0113	-0.0239	-0.5039	-0.0282
1928.0000	-0.0088	-0.0193	0.0402	0.0475	-0.0275	-0.0006	-0.0141	-0.0264	0.0195	-0.0173	0.0407	-0.2139	-0.0153	-0.0151	-0.5130	-0.0187
1936.0000	-0.0044	-0.0122	0.0309	0.0471	-0.0236	0.0006	-0.0222	-0.0252	0.0301	-0.0040	0.0664	-0.1840	-0.0106	-0.0094	-0.5162	-0.0061
1944.0000	-0.0082	0.0126	0.0150	0.0366	-0.0225	-0.0068	-0.0194	-0.0296	0.0314	0.0016	0.0938	-0.1480	-0.0003	-0.0139	-0.5152	-0.0007
1952.0000	-0.0135	0.0442	0.0097	0.0316	-0.0225	-0.0077	-0.0125	-0.0338	0.0303	0.0052	0.1267	-0.1056	0.0018	-0.0178	-0.5062	0.0031
1960.0000	-0.0184	0.0662	0.0111	0.0294	-0.0259	-0.0019	-0.0174	-0.0310	0.0332	0.0171	0.1645	-0.0583	-0.0050	-0.0124	-0.4863	0.0127
1968.0000	-0.0227	0.0631	0.0105	0.0159	-0.0295	0.0011	-0.0272	-0.0298	0.0314	0.0303	0.1991	-0.0127	-0.0065	-0.0067	-0.4629	0.0224
1976.0000	-0.0196	0.0418	0.0120	-0.0014	-0.0313	0.0047	-0.0289	-0.0355	0.0226	0.0328	0.2261	0.0267	0.0004	-0.0072	-0.4434	0.0263
1984.0000	-0.0080	0.0229	0.0158	-0.0046	-0.0375	0.0157	-0.0267	-0.0357	0.0182	0.0274	0.2483	0.0613	0.0041	-0.0058	-0.4259	0.0291
1992.0000	0.0006	0.0179	0.0135	0.0013	-0.0478	0.0253	-0.0257	-0.0234	0.0208	0.0250	0.2665	0.0924	0.0016	0.0027	-0.4085	0.0342
2000.0000	-0.0009	0.0294	0.0078	-0.0009	-0.0488	0.0227	-0.0234	-0.0146	0.0211	0.0249	0.2766	0.1167	-0.0018	0.0095	-0.3955	0.0353
2008.0000	-0.0055	0.0552	0.0097	-0.0060	-0.0357	0.0171	-0.0222	-0.0209	0.0156	0.0195	0.2795	0.1331	-0.0069	0.0078	-0.3870	0.0300
2016.0000	-0.0070	0.0781	0.0177	0.0028	-0.0212	0.0227	-0.0242	-0.0283	0.0103	0.0109	0.2811	0.1470	-0.0132	0.0041	-0.3755	0.0255
2024.0000	-0.0098	0.0762	0.0222	0.0206	-0.0126	0.0357	-0.0197	-0.0227	0.0092	0.0102	0.2839	0.1635	-0.0113	0.0065	-0.3593	0.0276
2032.0000	-0.0186	0.0514	0.0210	0.0264	-0.0040	0.0410	-0.0076	-0.0130	0.0095	0.0192	0.2863	0.1829	-0.0034	0.0122	-0.3429	0.0337
2040.0000	-0.0293	0.0279	0.0166	0.0142	0.0045	0.0342	-0.0035	-0.0108	0.0061	0.0278	0.2891	0.2052	-0.0052	0.0140	-0.3245	0.0401
2048.0000	-0.0346	0.0230	0.0098	-0.0002	0.0053	0.0247	-0.0107	-0.0098	-0.0007	0.0294	0.2958	0.2314	-0.0157	0.0119	-0.2978	0.0477
2056.0000	-0.0298	0.0365	0.0065	-0.0006	0.0026	0.0238	-0.0125	-0.0022	-0.0015	0.0288	0.3083	0.2617	-0.0168	0.0104	-0.2643	0.0589
2064.0000	-0.0169	0.0572	0.0127	0.0132	0.0067	0.0341	-0.0053	0.0037	0.0075	0.0312	0.3228	0.2946	-0.0087	0.0113	-0.2309	0.0720
2072.0000	-0.0063	0.0681	0.0212	0.0270	0.0145	0.0474	-0.0060	-0.0011	0.0139	0.0363	0.3332	0.3285	-0.0096	0.0155	-0.1987	0.0822
2080.0000	-0.0078	0.0593	0.0201	0.0281	0.0162	0.0517	-0.0196	-0.0105	0.0100	0.0452	0.3397	0.3647	-0.0186	0.0265	-0.1627	0.0877
2088.0000	-0.0165	0.0433	0.0116	0.0191	0.0138	0.0431	-0.0314	-0.0144	0.0077	0.0600	0.3512	0.4058	-0.0198	0.0407	-0.1198	0.0936
2096.0000	-0.0208	0.0425	0.0045	0.0115	0.0133	0.0291	-0.0336	-0.0135	0.0117	0.0750	0.3724	0.4524	-0.0145	0.0462	-0.0708	0.1039
2104.0000	-0.0219	0.0623	-0.0024	0.0078	0.0127	0.0201	-0.0331	-0.0155	0.0060	0.0803	0.3953	0.4995	-0.0151	0.0429	-0.0186	0.1142
2112.0000	-0.0290	0.0880	-0.0143	0.0024	0.0089	0.0179	-0.0367	-0.0237	-0.0119	0.0763	0.4114	0.5418	-0.0201	0.0462	0.0338	0.1180
2120.0000	-0.0375	0.1006	-0.0263	-0.0036	0.0040	0.0153	-0.0425	-0.0350	-0.0203	0.0710	0.4236	0.5788	-0.0245	0.0596	0.0852	0.1153
2128.0000	-0.0353	0.0882	-0.0299	-0.0025	0.0005	0.0066	-0.0432	-0.0418	-0.0141	0.0672	0.4354	0.6111	-0.0315	0.0680	0.1354	0.1096
2136.0000	-0.0263	0.0571	-0.0269	0.0050	0.0011	-0.0044	-0.0353	-0.0394	-0.0119	0.0641	0.4422	0.6374	-0.0360	0.0691	0.1830	0.1032
2144.0000	-0.0253	0.0337	-0.0256	0.0096	0.0086	-0.0093	-0.0277	-0.0325	-0.0159	0.0662	0.4449	0.6621	-0.0280	0.0779	0.2311	0.1017
2152.0000	-0.0315	0.0387	-0.0283	0.0093	0.0174	-0.0069	-0.0309	-0.0299	-0.0116	0.0740	0.4539	0.6961	-0.0192	0.0905	0.2889	0.1103
2160.0000	-0.0319	0.0629	-0.0295	0.0103	0.0163	-0.0055	-0.0377	-0.0332	-0.0045	0.0784	0.4714	0.7402	-0.0285	0.0869	0.3585	0.1238
2168.0000	-0.0269	0.0830	-0.0259	0.0143	0.0092	-0.0107	-0.0335	-0.0360	-0.0078	0.0743	0.4845	0.7802	-0.0426	0.0722	0.4272	0.1307
2176.0000	-0.0269	0.0891	-0.0205	0.0173	0.0120	-0.0168	-0.0222	-0.0327	-0.0117	0.0685	0.4844	0.8042	-0.0363	0.0686	0.4835	0.1285
2184.0000	-0.0275	0.0848	-0.0147	0.0214	0.0262	-0.0133	-0.0166	-0.0216	-0.0048	0.0671	0.4756	0.8160	-0.0190	0.0736	0.5301	0.1236
2192.0000	-0.0169	0.0795	-0.0062	0.0317	0.0375	-0.0003	-0.0135	-0.0050	0.0024	0.0682	0.4662	0.8252	-0.0159	0.0714	0.5747	0.1210
2200.0000	-0.0034	0.0833	-0.0006	0.0415	0.0404	0.0083	-0.0048	0.0059	0.0044	0.0716	0.4631	0.8379	-0.0200	0.0713	0.6207	0.1237
2208.0000	-0.0062	0.0934	-0.0100	0.0388	0.0408	0.0021	0.0019	-0.0004	0.0105	0.0765	0.4703	0.8556	-0.0125	0.0845	0.6714	0.1332
2216.0000	-0.0212	0.0911	-0.0323	0.0283	0.0393	-0.0101	-0.0006	-0.0170	0.0148	0.0753	0.4812	0.8743	-0.0053	0.0920	0.7289	0.1428
2224.0000	-0.0258	0.0706	-0.0476	0.0286	0.0331	-0.0117	-0.0026	-0.0245	0.0037	0.0658	0.4836	0.8870	-0.0173	0.0798	0.7864	0.1442
2232.0000	-0.0159	0.0503	-0.0452	0.0419	0.0289	-0.0031	0.0058	-0.0187	-0.0098	0.0590	0.4775	0.8947	-0.0336	0.0676	0.8363	0.1407
2240.0000	-0.0085	0.0418	-0.0375	0.0493	0.0340	0.0017	0.0212	-0.0140	-0.0103	0.0593	0.4720	0.9029	-0.0299	0.0697	0.8802	0.1407
2248.0000	-0.0102	0.0354	-0.0362	0.0427	0.0436	0.0009	0.0335	-0.0161	-0.0131	0.0552	0.4647	0.9078	-0.0128	0.0708	0.9196	0.1407
2256.0000	-0.0125	0.0307	-0.0381	0.0349	0.0477	0.0039	0.0310	-0.0159	-0.0296	0.0449	0.4477	0.9006	-0.0045	0.0653	0.9505	0.1337
2264.0000	-0.0135	0.0412	-0.0400	0.0316	0.0429	0.0093	0.0083	-0.0117	-0.0399	0.0435	0.4287	0.8867	-0.0098	0.0681	0.9765	0.1247
2272.0000	-0.0178	0.0605	-0.0456	0.0235	0.0346	0.0089	-0.0154	-0.0111	-0.0375	0.0519	0.4200	0.8773	-0.0185	0.0758	1.0088	0.1200
2280.0000	-0.0195	0.0641	-0.0500	0.0127	0.0326	0.0084	-0.0126	-0.0134	-0.0453	0.0502	0.4155	0.8667	-0.0212	0.0696	1.0459	0.1141
2288.0000	-0.0100	0.0470	-0.0433	0.0144	0.0401	0.0173	0.0095	-0.0120	-0.0614	0.0338	0.4036	0.8409	-0.0150	0.0566	1.0740	0.1024
2296.0000	0.0049	0.0257	-0.0296	0.0275	0.0467	0.0269	0.0187	-0.0095	-0.0549	0.0223	0.3906	0.8042	-0.0059	0.0558	1.0915	0.0916
2304.0000	0.0135	0.0083	-0.0219	0.0349	0.0446	0.0261	0.0137	-0.0094	-0.0268	0.0238	0.3883	0.7728	-0.0017	0.0603	1.1101	0.0868
2312.0000	0.0156	-0.0050	-0.0213	0.0348	0.0450	0.0232	0.0219	-0.0067	-0.0101	0.0270	0.3943	0.7507	0.0016	0.0561	1.1341	0.0857
2320.0000	0.0162	-0.0051	-0.0207	0.0382	0.0587	0.0269	0.0419	-0.0022	-0.0104	0.0272	0.4008	0.7321	0.0116	0.0530	1.1609	0.0889
2328.0000	0.0141	0.0139	-0.0218	0.0399	0.0713	0.0249	0.0414	-0.0087	-0.0082	0.0298	0.4092	0.7157	0.0175	0.0595	1.1927	0.0967
2336.0000	0.0066	0.0393	-0.0294	0.0253	0.0653	0.0075	0.0144	-0.0275	-0.0043	0.0322	0.4227	0.7024	0.0046	0.0617	1.2313	0.0992
2344.0000	-0.0030	0.0525	-0.0379	0.0016	0.0522	-0.0109	-0.0085	-0.0405	-0.0086	0.0290	0.4421	0.6923	-0.0142	0.0528	1.2730	0.0908
2352.0000	-0.0090	0.0471	-0.0379	-0.0098	0.0508	-0.0159	-0.0064	-0.0360	-0.0113	0.0251	0.4688	0.6881	-0.0141	0.0463	1.3186	0.0820
2360.0000	-0.0076	0.0326	-0.0291	-0.0047	0.0562	-0.0127	0.0107	-0.0245	-0.0062	0.0244	0.4964	0.6873	0.0021	0.0463	1.3682	0.0797
2368.0000	-0.0009	0.0268	-0.0197	0.0019	0.0573	-0.0109	0.0235	-0.0190	-0.0055	0.0219	0.5084	0.6755	0.0143	0.0452	1.4076	0.0756
2376.0000	0.0011	0.0384	-0.0186	-0.0015	0.0610	-0.0130	0.0260	-0.0215	-0.0096	0.0182	0.5020	0.6484	0.0191	0.0464	1.4287	0.0690
2384.0000	-0.0093	0.0531	-0.0281	-0.0142	0.0711	-0.0222	0.0268	-0.0299	-0.0047	0.0205	0.4981	0.6274	0.0234	0.0536	1.4541	0.0735
2392.0000	-0.0234	0.0528	-0.0390	-0.0267	0.0727	-0.0383	0.0321	-0.0407	0.0038	0.0250	0.5084	0.6281	0.0239	0.0532	1.5058	0.0878
2400.0000	-0.0255	0.0415	-0.0397	-0.0279	0.0595	-0.0507	0.0324	-0.0473	0.0005	0.0214	0.5155	0.6335	0.0174	0.0397	1.5658	0.0931
2408.0000	-0.0193	0.0354	-0.0320	-0.0189	0.0478	-0.0543	0.0183	-0.0471	-0.0066	0.0152	0.5063	0.6259	0.0120	0.0308	1.6081	0.0877
2416.0000	-0.0216	0.0394	-0.0284	-0.0155	0.0471	-0.0575	0.0009	-0.0462	-0.0030	0.0197	0.4991	0.6205	0.0112	0.0341	1.6452	0.0907
2424.0000	-0.0330	0.0524	-0.0305	-0.0244	0.0466	-0.0627	-0.0050	-0.0479	0.0025	0.0326	0.5133	0.6389	0.0090	0.0344	1.7023	0.1065
2432.0000	-0.0396	0.0765	-0.0275	-0.0322	0.0401	-0.0603	-0.0054	-0.0469	0.0004	0.0428	0.5391	0.6728	0.0034	0.0292	1.7718	0.1199
2440.0000	-0.0394	0.1046	-0.0182	-0.0297	0.0355	-0.0520	-0.0083	-0.0405	0.0022	0.0492	0.5567	0.7027	-0.0017	0.0359	1.8321	0.1267
2448.0000	-0.0412	0.1202	-0.0150	-0.0265	0.0347	-0.0515	-0.0059	-0.0337	0.0120	0.0547	0.5647	0.7291	-0.0050	0.0534	1.8838	0.1371
2456.0000	-0.0416	0.1205	-0.0200	-0.0298	0.0313	-0.0570	0.0018	-0.0294	0.0139	0.0558	0.5697	0.7592	-0.0034	0.0615	1.9343	0.1507
2464.0000	-0.0323	0.1159	-0.0168	-0.0335	0.0284	-0.0543	-0.0008	-0.0232	0.0051	0.0548	0.5706	0.7863	0.0053	0.0603	1.9767	0.1578
2472.0000	-0.0215	0.1084	0.0036	-0.0395	0.0346	-0.0459	-0.0127	-0.0103	0.0034	0.0624	0.5688	0.8047	0.0099	0.0675	2.0113	0.1598
2480.0000	-0.0233	0.0950	0.0269	-0.0591	0.0426	-0.0449	-0.0150	0.0091	0.0110	0.0772	0.5729	0.8242	-0.0002	0.0788	2.0537	0.1636
2488.0000	-0.0333	0.0854	0.0376	-0.0840	0.0376	-0.0448	-0.0076	0.0307	0.0091	0.0825	0.5794	0.8483	-0.0103	0.0747	2.1031	0.1649
2496.0000	-0.0365	0.0922	0.0398	-0.0882	0.0241	-0.0309	-0.0040	0.0497	-0.0049	0.0733	0.5696	0.8616	-0.0022	0.0605	2.1367	0.1582
2504.0000	-0.0318	0.1139	0.0424	-0.0701	0.0192	-0.0139	-0.0009	0.0619	-0.0122	0.0656	0.5402	0.8568	0.0110	0.0603	2.1492	0.1519
2512.0000	-0.0275	0.1327	0.0412	-0.0573	0.0207	-0.0156	0.0055	0.0651	-0.0076	0.0680	0.5122	0.8504	0.0079	0.0755	2.1621	0.1550
2520.0000	-0.0226	0.1221	0.0345	-0.0601	0.0103	-0.0282	0.0036	0.0642	-0.0077	0.0673	0.4914	0.8493	-0.0015	0.0825	2.1810	0.1579
2528.0000	-0.0112	0.0706	0.0355	-0.0555	-0.0080	-0.0238	-0.0020	0.0737	-0.0184	0.0549	0.4498	0.8310	0.0038	0.0740	2.1799	0.1454
2536.0000	0.0012	0.0116	0.0457	-0.0319	-0.0086	-0.0019	0.0112	0.1003	-0.0248	0.0467	0.3723	0.7839	0.0195	0.0698	2.1451	0.1240
2544.0000	0.0033	-0.0042	0.0404	-0.0125	0.0088	0.0106	0.0334	0.1263	-0.0215	0.0567	0.2882	0.7368	0.0298	0.0795	2.1045	0.1158
2552.0000	-0.0038	0.0194	0.0108	-0.0143	0.0115	0.0060	0.0318	0.1308	-0.0290	0.0658	0.2212	0.7094	0.0329	0.0825	2.0857	0.1240
2560.0000	-0.0052	0.0245	-0.0098	-0.0191	-0.0105	0.0051	0.0157	0.1261	-0.0583	0.0463	0.1452	0.6698	0.0323	0.0629	2.0732	0.1251
2568.0000	0.0059	-0.0176	0.0055	-0.0076	-0.0253	0.0155	0.0179	0.1408	-0.0838	0.0092	0.0335	0.5877	0.0277	0.0407	2.0389	0.1070
2576.0000	0.0158	-0.0824	0.0319	0.0070	-0.0152	0.0186	0.0258	0.1686	-0.0779	-0.0082	-0.0826	0.4955	0.0227	0.0423	1.9954	0.0894
2584.0000	0.0072	-0.1462	0.0347	0.0067	-0.0057	0.0100	0.0107	0.1775	-0.0568	-0.0009	-0.1627	0.4372	0.0207	0.0563	1.9762	0.0884
2592.0000	-0.0124	-0.1962	0.0226	0.0033	-0.0142	0.0142	-0.0048	0.1654	-0.0551	-0.0018	-0.2279	0.3914	0.0192	0.0545	1.9745	0.0860
2600.0000	-0.0174	-0.1996	0.0220	0.0166	-0.0170	0.0417	0.0120	0.1617	-0.0685	-0.0253	-0.3239	0.3087	0.0229	0.0394	1.9524	0.0630
2608.0000	-0.0001	-0.1418	0.0299	0.0400	0.0038	0.0690	0.0405	0.1747	-0.0650	-0.0475	-0.4454	0.1916	0.0401	0.0354	1.9046	0.0354
2616.0000	0.0167	-0.0834	0.0291	0.0546	0.0275	0.0769	0.0484	0.1857	-0.0462	-0.0527	-0.5554	0.0756	0.0589	0.0444	1.8609	0.0274
2624.0000	0.0118	-0.1034	0.0219	0.0584	0.0327	0.0759	0.0433	0.1895	-0.0463	-0.0581	-0.6504	-0.0360	0.0594	0.0460	1.8306	0.0323
2632.0000	-0.0062	-0.2045	0.0207	0.0615	0.0257	0.0780	0.0385	0.1959	-0.0726	-0.0775	-0.7520	-0.1608	0.0512	0.0311	1.7961	0.0320
2640.0000	-0.0141	-0.3268	0.0309	0.0686	0.0158	0.0805	0.0280	0.2055	-0.0936	-0.1003	-0.8641	-0.2951	0.0596	0.0068	1.7526	0.0280
2648.0000	-0.0057	-0.4217	0.0528	0.0802	0.0018	0.0830	0.0170	0.2152	-0.0914	-0.1146	-0.9808	-0.4291	0.0790	-0.0172	1.7078	0.0268
2656.0000	0.0031	-0.4693	0.0767	0.0926	-0.0116	0.0871	0.0182	0.2286	-0.0853	-0.1226	-1.1070	-0.5728	0.0834	-0.0317	1.6558	0.0208
2664.0000	-0.0021	-0.4692	0.0808	0.0962	-0.0177	0.0819	0.0205	0.2383	-0.0955	-0.1314	-1.2408	-0.7297	0.0736	-0.0335	1.5920	0.0039
2672.0000	-0.0143	-0.4474	0.0607	0.0908	-0.0229	0.0629	0.0165	0.2296	-0.1165	-0.1465	-1.3679	-0.8860	0.0718	-0.0374	1.5303	-0.0184
2680.0000	-0.0122	-0.4397	0.0430	0.0934	-0.0316	0.0522	0.0264	0.2107	-0.1299	-0.1685	-1.4871	-1.0388	0.0806	-0.0545	1.4742	-0.0427
2688.0000	0.0079	-0.4536	0.0418	0.1100	-0.0312	0.0621	0.0507	0.2010	-0.1255	-0.1845	-1.6045	-1.1932	0.0832	-0.0660	1.4081	-0.0670
2696.0000	0.0196	-0.4743	0.0333	0.1206	-0.0146	0.0689	0.0521	0.1926	-0.1095	-0.1802	-1.7021	-1.3301	0.0724	-0.0529	1.3378	-0.0787
2704.0000	0.0020	-0.4922	0.0041	0.1127	0.0018	0.0551	0.0222	0.1682	-0.1001	-0.1658	-1.7572	-1.4251	0.0561	-0.0336	1.2923	-0.0716
2712.0000	-0.0270	-0.4973	-0.0187	0.1044	0.0031	0.0426	-0.0008	0.1414	-0.1066	-0.1612	-1.7824	-1.4894	0.0438	-0.0343	1.2741	-0.0614
2720.0000	-0.0391	-0.4715	-0.0152	0.1092	-0.0038	0.0497	-0.0015	0.1331	-0.1144	-0.1614	-1.8044	-1.5475	0.0386	-0.0443	1.2587	-0.0613
2728.0000	-0.0415	-0.4131	-0.0054	0.1112	-0.0066	0.0561	-0.0061	0.1320	-0.1039	-0.1483	-1.8180	-1.5941	0.0358	-0.0411	1.2461	-0.0617
2736.0000	-0.0573	-0.3455	-0.0067	0.0967	-0.0044	0.0417	-0.0265	0.1202	-0.0805	-0.1278	-1.7993	-1.6109	0.0296	-0.0325	1.2591	-0.0534
2744.0000	-0.0799	-0.2969	-0.0051	0.0784	-0.0031	0.0193	-0.0485	0.1076	-0.0643	-0.1176	-1.7446	-1.6009	0.0222	-0.0335	1.2994	-0.0436
2752.0000	-0.0894	-0.2849	0.0075	0.0695	-0.0084	0.0078	-0.0637	0.1080	-0.0572	-0.1122	-1.6679	-1.5771	0.0165	-0.0356	1.3485	-0.0376
2760.0000	-0.0932	-0.3014	0.0133	0.0649	-0.0184	0.0075	-0.0683	0.1131	-0.0467	-0.0956	-1.5809	-1.5430	0.0074	-0.0278	1.3952	-0.0302
2768.0000	-0.1087	-0.2964	0.0029	0.0612	-0.0197	0.0114	-0.0556	0.1106	-0.0321	-0.0724	-1.4906	-1.5007	-0.0066	-0.0173	1.4288	-0.0229
2776.0000	-0.1243	-0.2209	-0.0099	0.0661	-0.0045	0.0131	-0.0375	0.0985	-0.0210	-0.0560	-1.3983	-1.4536	-0.0133	-0.0096	1.4354	-0.0228
2784.0000	-0.1194	-0.1036	-0.0178	0.0807	0.0132	0.0068	-0.0350	0.0773	-0.0077	-0.0444	-1.2957	-1.3992	-0.0066	-0.0017	1.4211	-0.0286
2792.0000	-0.1044	-0.0266	-0.0298	0.0946	0.0204	-0.0021	-0.0421	0.0547	0.0176	-0.0288	-1.1791	-1.3363	0.0015	0.0011	1.4093	-0.0357
2800.0000	-0.1045	-0.0177	-0.0492	0.0977	0.0261	-0.0048	-0.0425	0.0431	0.0467	-0.0062	-1.0482	-1.2604	0.0010	-0.0034	1.4173	-0.0424
2808.0000	-0.1234	-0.0286	-0.0673	0.0847	0.0366	-0.0108	-0.0460	0.0382	0.0637	0.0249	-0.8849	-1.1453	-0.0055	0.0029	1.4634	-0.0399
2816.0000	-0.1481	-0.0150	-0.0745	0.0588	0.0381	-0.0318	-0.0630	0.0277	0.0691	0.0626	-0.6674	-0.9682	-0.0172	0.0278	1.5672	-0.0194
2824.0000	-0.1689	0.0303	-0.0618	0.0376	0.0281	-0.0515	-0.0779	0.0231	0.0750	0.0958	-0.4163	-0.7551	-0.0351	0.0457	1.7112	0.0070
2832.0000	-0.1816	0.1037	-0.0280	0.0345	0.0248	-0.0508	-0.0837	0.0385	0.0866	0.1181	-0.1808	-0.5553	-0.0489	0.0383	1.8457	0.0213
2840.0000	-0.1870	0.1845	0.0075	0.0341	0.0280	-0.0443	-0.0944	0.0486	0.0984	0.1336	0.0202	-0.3805	-0.0479	0.0263	1.9519	0.0264
2848.0000	-0.1923	0.2291	0.0194	0.0144	0.0141	-0.0481	-0.1002	0.0295	0.1009	0.1386	0.1951	-0.2208	-0.0400	0.0310	2.0405	0.0274
2856.0000	-0.1970	0.2299	0.0064	-0.0161	-0.0120	-0.0448	-0.0760	0.0118	0.0911	0.1224	0.3374	-0.0915	-0.0386	0.0419	2.0881	0.0108
2864.0000	-0.1893	0.2403	-0.0150	-0.0341	-0.0157	-0.0244	-0.0424	0.0249	0.0830	0.0981	0.4448	-0.0011	-0.0457	0.0475	2.0676	-0.0254
2872.0000	-0.1693	0.2913	-0.0390	-0.0405	0.0066	-0.0174	-0.0462	0.0323	0.0961	0.0955	0.5572	0.0923	-0.0586	0.0567	2.0330	-0.0518
2880.0000	-0.1563	0.3355	-0.0647	-0.0502	0.0205	-0.0424	-0.0828	-0.0064	0.1227	0.1173	0.7112	0.2273	-0.0739	0.0697	2.0697	-0.0522
2888.0000	-0.1598	0.3219	-0.0776	-0.0577	0.0112	-0.0710	-0.1076	-0.0597	0.1311	0.1376	0.8845	0.3838	-0.0831	0.0688	2.1724	-0.0495
2896.0000	-0.1714	0.2775	-0.0672	-0.0502	-0.0061	-0.0771	-0.1090	-0.0800	0.1139	0.1458	1.0338	0.5285	-0.0841	0.0520	2.2719	-0.0629
2904.0000	-0.1861	0.2706	-0.0500	-0.0378	-0.0267	-0.0739	-0.1090	-0.0794	0.0982	0.1528	1.1518	0.6653	-0.0874	0.0395	2.3496	-0.0791
2912.0000	-0.2040	0.3233	-0.0478	-0.0377	-0.0551	-0.0760	-0.1168	-0.0897	0.0949	0.1610	1.2473	0.8006	-0.0960	0.0424	2.4290	-0.0871
2920.0000	-0.2123	0.3897	-0.0575	-0.0452	-0.0772	-0.0771	-0.1270	-0.1060	0.0833	0.1617	1.3151	0.9178	-0.0990	0.0504	2.4934	-0.0957
2928.0000	-0.1999	0.4069	-0.0618	-0.0480	-0.0801	-0.0758	-0.1373	-0.1168	0.0585	0.1560	1.3570	1.0115	-0.0969	0.0510	2.5055	-0.1082
2936.0000	-0.1798	0.3546	-0.0558	-0.0492	-0.0782	-0.0795	-0.1390	-0.1333	0.0426	0.1478	1.3843	1.0926	-0.1036	0.0385	2.4690	-0.1193
2944.0000	-0.1691	0.2700	-0.0454	-0.0540	-0.0858	-0.0828	-0.1245	-0.1596	0.0391	0.1296	1.3859	1.1508	-0.1152	0.0140	2.4035	-0.1367
2952.0000	-0.1628	0.2065	-0.0357	-0.0534	-0.0925	-0.0780	-0.1088	-0.1841	0.0281	0.0979	1.3396	1.1637	-0.1129	-0.0127	2.3034	-0.1705
2960.0000	-0.1516	0.1833	-0.0287	-0.0418	-0.0923	-0.0714	-0.1098	-0.2056	0.0084	0.0638	1.2538	1.1363	-0.0954	-0.0326	2.1670	-0.2125
2968.0000	-0.1421	0.1812	-0.0237	-0.0275	-0.1021	-0.0654	-0.1155	-0.2265	-0.0064	0.0337	1.1535	1.0862	-0.0779	-0.0499	2.0125	-0.2541
2976.0000	-0.1400	0.1732	-0.0211	-0.0151	-0.1251	-0.0506	-0.1037	-0.2309	-0.0208	0.0004	1.0415	1.0107	-0.0677	-0.0709	1.8451	-0.3008
2984.0000	-0.1360	0.1488	-0.0290	0.0037	-0.1362	-0.0302	-0.0768	-0.2097	-0.0414	-0.0357	0.9160	0.9104	-0.0664	-0.0854	1.6586	-0.3503
2992.0000	-0.1199	0.1190	-0.0542	0.0314	-0.1205	-0.0186	-0.0504	-0.1828	-0.0510	-0.0612	0.7955	0.8095	-0.0756	-0.0811	1.4679	-0.3827
3000.0000	-0.0908	0.0976	-0.0814	0.0576	-0.0938	-0.0129	-0.0319	-0.1668	-0.0403	-0.0721	0.6923	0.7204	-0.0835	-0.0674	1.2927	-0.3914
3008.0000	-0.0543	0.0734	-0.0863	0.0746	-0.0741	-0.0030	-0.0228	-0.1527	-0.0294	-0.0800	0.5943	0.6254	-0.0753	-0.0647	1.1263	-0.3941
3016.0000	-0.0251	0.0209	-0.0721	0.0818	-0.0633	0.0013	-0.0213	-0.1355	-0.0270	-0.0920	0.4963	0.5162	-0.0606	-0.0787	0.9596	-0.4029
3024.0000	-0.0178	-0.0496	-0.0623	0.0802	-0.0596	-0.0089	-0.0182	-0.1285	-0.0175	-0.1046	0.4096	0.4077	-0.0552	-0.1020	0.8055	-0.4123
3032.0000	-0.0223	-0.0929	-0.0557	0.0794	-0.0636	-0.0139	-0.0089	-0.1344	-0.0050	-0.1168	0.3287	0.3021	-0.0478	-0.1288	0.6665	-0.4185
3040.0000	-0.0140	-0.0956	-0.0286	0.0954	-0.0691	0.0046	0.0007	-0.1336	-0.0107	-0.1319	0.2318	0.1812	-0.0235	-0.1529	0.5187	-0.4259
3048.0000	0.0037	-0.0958	0.0158	0.1255	-0.0689	0.0311	0.0097	-0.1144	-0.0223	-0.1462	0.1199	0.0436	0.0018	-0.1632	0.3513	-0.4344
3056.0000	0.0023	-0.1182	0.0417	0.1441	-0.0667	0.0424	0.0221	-0.0896	-0.0111	-0.1500	0.0153	-0.0885	0.0095	-0.1573	0.1848	-0.4367
3064.0000	-0.0203	-0.1424	0.0345	0.1394	-0.0703	0.0388	0.0295	-0.0793	0.0072	-0.1423	-0.0730	-0.2001	0.0113	-0.1483	0.0370	-0.4287
3072.0000	-0.0334	-0.1490	0.0208	0.1288	-0.0778	0.0301	0.0246	-0.0874	-0.0006	-0.1343	-0.1507	-0.2946	0.0194	-0.1484	-0.0941	-0.4130
3080.0000	-0.0255	-0.1494	0.0260	0.1236	-0.0821	0.0211	0.0200	-0.0987	-0.0185	-0.1352	-0.2173	-0.3796	0.0203	-0.1532	-0.2145	-0.3971
3088.0000	-0.0189	-0.1568	0.0409	0.1124	-0.0844	0.0182	0.0228	-0.1012	-0.0129	-0.1425	-0.2750	-0.4624	0.0072	-0.1547	-0.3305	-0.3908
3096.0000	-0.0267	-0.1689	0.0457	0.0909	-0.0922	0.0217	0.0147	-0.1056	0.0005	-0.1503	-0.3385	-0.5513	0.0004	-0.1577	-0.4558	-0.3969
3104.0000	-0.0316	-0.1799	0.0445	0.0751	-0.1036	0.0180	-0.0084	-0.1256	-0.0089	-0.1581	-0.4132	-0.6460	0.0138	-0.1695	-0.5972	-0.4075
3112.0000	-0.0197	-0.1811	0.0574	0.0732	-0.1056	0.0032	-0.0153	-0.1458	-0.0244	-0.1641	-0.4823	-0.7358	0.0329	-0.1816	-0.7431	-0.4118
3120.0000	-0.0037	-0.1647	0.0861	0.0744	-0.0953	-0.0040	0.0064	-0.1412	-0.0166	-0.1611	-0.5312	-0.8113	0.0405	-0.1794	-0.8784	-0.4053
3128.0000	-0.0017	-0.1437	0.1069	0.0718	-0.0899	0.0042	0.0221	-0.1216	-0.0019	-0.1479	-0.5663	-0.8721	0.0374	-0.1653	-0.9988	-0.3891
3136.0000	-0.0102	-0.1441	0.1035	0.0675	-0.1052	0.0076	0.0092	-0.1175	-0.0120	-0.1370	-0.6007	-0.9238	0.0329	-0.1544	-1.1083	-0.3685
3144.0000	-0.0118	-0.1680	0.0913	0.0610	-0.1317	-0.0052	-0.0073	-0.1290	-0.0392	-0.1390	-0.6423	-0.9768	0.0306	-0.1519	-1.2169	-0.3524
3152.0000	0.0013	-0.1950	0.0942	0.0541	-0.1477	-0.0154	-0.0052	-0.1333	-0.0564	-0.1499	-0.6975	-1.0434	0.0237	-0.1542	-1.3379	-0.3471
3160.0000	0.0204	-0.2185	0.1094	0.0535	-0.1482	-0.0101	0.0004	-0.1282	-0.0596	-0.1616	-0.7697	-1.1265	0.0062	-0.1611	-1.4756	-0.3517
3168.0000	0.0352	-0.2448	0.1167	0.0527	-0.1428	-0.0046	-0.0040	-0.1284	-0.0612	-0.1732	-0.8497	-1.2158	-0.0089	-0.1716	-1.6177	-0.3611
3176.0000	0.0444	-0.2675	0.1121	0.0349	-0.1348	-0.0118	-0.0065	-0.1337	-0.0646	-0.1831	-0.9197	-1.2956	-0.0011	-0.1747	-1.7460	-0.3675
3184.0000	0.0495	-0.2752	0.1077	0.0066	-0.1214	-0.0210	-0.0009	-0.1359	-0.0651	-0.1826	-0.9667	-1.3540	0.0179	-0.1638	-1.8473	-0.3623
3192.0000	0.0489	-0.2715	0.1063	-0.0049	-0.1073	-0.0213	0.0009	-0.1377	-0.0600	-0.1692	-0.9885	-1.3862	0.0133	-0.1486	-1.9157	-0.3435
3200.0000	0.0442	-0.2638	0.1040	0.0051	-0.0984	-0.0180	-0.0035	-0.1413	-0.0501	-0.1524	-0.9908	-1.3959	-0.0122	-0.1380	-1.9541	-0.3189
3208.0000	0.0403	-0.2501	0.1070	0.0144	-0.0913	-0.0169	-0.0023	-0.1393	-0.0400	-0.1403	-0.9831	-1.3937	-0.0165	-0.1269	-1.9740	-0.2951
3216.0000	0.0380	-0.2335	0.1229	0.0128	-0.0820	-0.0134	0.0056	-0.1304	-0.0355	-0.1305	-0.9719	-1.3878	0.0089	-0.1117	-1.9839	-0.2698
3224.0000	0.0353	-0.2240	0.1444	0.0100	-0.0748	-0.0056	0.0097	-0.1205	-0.0371	-0.1179	-0.9577	-1.3789	0.0242	-0.1000	-1.9836	-0.2400
3232.0000	0.0356	-0.2216	0.1625	0.0103	-0.0731	0.0001	0.0087	-0.1078	-0.0403	-0.1027	-0.9406	-1.3644	0.0137	-0.0950	-1.9732	-0.2084
3240.0000	0.0424	-0.2188	0.1790	0.0108	-0.0722	0.0034	0.0100	-0.0874	-0.0417	-0.0873	-0.9275	-1.3473	0.0080	-0.0880	-1.9598	-0.1774
3248.0000	0.0523	-0.2182	0.1928	0.0094	-0.0678	0.0119	0.0151	-0.0671	-0.0419	-0.0743	-0.9262	-1.3341	0.0196	-0.0761	-1.9518	-0.1469
3256.0000	0.0627	-0.2249	0.1936	-0.0040	-0.0634	0.0250	0.0194	-0.0554	-0.0436	-0.0675	-0.9359	-1.3277	0.0212	-0.0670	-1.9520	-0.1212
3264.0000	0.0781	-0.2306	0.1823	-0.0401	-0.0638	0.0301	0.0219	-0.0466	-0.0485	-0.0686	-0.9501	-1.3279	0.0040	-0.0628	-1.9613	-0.1065
3272.0000	0.0988	-0.2245	0.1737	-0.0826	-0.0675	0.0245	0.0245	-0.0347	-0.0537	-0.0735	-0.9674	-1.3366	-0.0043	-0.0562	-1.9831	-0.1021
3280.0000	0.1163	-0.2077	0.1711	-0.1030	-0.0678	0.0236	0.0276	-0.0257	-0.0545	-0.0750	-0.9892	-1.3523	0.0088	-0.0437	-2.0196	-0.1016
3288.0000	0.1276	-0.1864	0.1630	-0.1043	-0.0600	0.0369	0.0315	-0.0248	-0.0515	-0.0691	-1.0080	-1.3625	0.0204	-0.0303	-2.0647	-0.0991
3296.0000	0.1376	-0.1620	0.1499	-0.1118	-0.0474	0.0494	0.0375	-0.0266	-0.0463	-0.0568	-1.0112	-1.3549	0.0149	-0.0207	-2.1067	-0.0911
3304.0000	0.1453	-0.1346	0.1435	-0.1259	-0.0379	0.0437	0.0444	-0.0257	-0.0359	-0.0427	-0.9962	-1.3320	0.0056	-0.0149	-2.1389	-0.0768
3312.0000	0.1463	-0.1053	0.1414	-0.1293	-0.0346	0.0269	0.0471	-0.0242	-0.0216	-0.0307	-0.9695	-1.3027	0.0072	-0.0105	-2.1635	-0.0575
3320.0000	0.1479	-0.0744	0.1338	-0.1245	-0.0335	0.0184	0.0403	-0.0238	-0.0151	-0.0204	-0.9341	-1.2665	0.0161	-0.0077	-2.1842	-0.0362
3328.0000	0.1588	-0.0446	0.1271	-0.1257	-0.0310	0.0205	0.0267	-0.0215	-0.0190	-0.0105	-0.8933	-1.2237	0.0236	-0.0107	-2.2059	-0.0185
3336.0000	0.1691	-0.0211	0.1298	-0.1294	-0.0250	0.0203	0.0179	-0.0143	-0.0171	-0.0042	-0.8578	-1.1866	0.0277	-0.0197	-2.2368	-0.0102
3344.0000	0.1640	-0.0051	0.1251	-0.1268	-0.0141	0.0137	0.0228	-0.0043	-0.0023	-0.0047	-0.8298	-1.1601	0.0286	-0.0248	-2.2763	-0.0090
3352.0000	0.1528	0.0079	0.0974	-0.1211	-0.0024	0.0105	0.0353	0.0019	0.0089	-0.0069	-0.7928	-1.1275	0.0250	-0.0185	-2.3075	-0.0043
3360.0000	0.1590	0.0219	0.0656	-0.1113	0.0029	0.0187	0.0446	0.0039	0.0084	-0.0033	-0.7413	-1.0823	0.0207	-0.0098	-2.3244	0.0059
3368.0000	0.1827	0.0374	0.0543	-0.0901	0.0056	0.0349	0.0526	0.0096	0.0129	0.0061	-0.6973	-1.0466	0.0255	-0.0092	-2.3476	0.0106
3376.0000	0.1993	0.0514	0.0509	-0.0683	0.0168	0.0468	0.0650	0.0198	0.0318	0.0156	-0.6725	-1.0320	0.0406	-0.0107	-2.3869	0.0066
3384.0000	0.1950	0.0600	0.0317	-0.0657	0.0322	0.0450	0.0752	0.0202	0.0493	0.0232	-0.6412	-1.0138	0.0507	-0.0050	-2.4131	0.0069
3392.0000	0.1832	0.0648	0.0056	-0.0765	0.0374	0.0328	0.0730	0.0048	0.0563	0.0314	-0.5809	-0.9708	0.0435	0.0016	-2.4009	0.0175
3400.0000	0.1782	0.0732	-0.0081	-0.0799	0.0353	0.0210	0.0627	-0.0103	0.0642	0.0394	-0.5088	-0.9159	0.0314	0.0015	-2.3677	0.0276
3408.0000	0.1748	0.0857	-0.0172	-0.0776	0.0392	0.0130	0.0550	-0.0144	0.0762	0.0433	-0.4465	-0.8648	0.0337	0.0010	-2.3370	0.0332
3416.0000	0.1645	0.0920	-0.0344	-0.0842	0.0438	0.0055	0.0507	-0.0191	0.0797	0.0425	-0.3869	-0.8101	0.0428	0.0040	-2.2992	0.0445
3424.0000	0.1560	0.0890	-0.0441	-0.0915	0.0366	0.0013	0.0480	-0.0291	0.0729	0.0419	-0.3227	-0.7483	0.0374	0.0015	-2.2449	0.0642
3432.0000	0.1610	0.0880	-0.0297	-0.0828	0.0275	0.0053	0.0513	-0.0269	0.0693	0.0465	-0.2677	-0.6924	0.0235	-0.0065	-2.1913	0.0836
3440.0000	0.1696	0.0955	-0.0065	-0.0661	0.0309	0.0097	0.0580	-0.0079	0.0726	0.0557	-0.2281	-0.6446	0.0272	-0.0054	-2.1473	0.1021
3448.0000	0.1611	0.1029	0.0014	-0.0637	0.0349	0.0031	0.0541	0.0041	0.0736	0.0638	-0.1880	-0.5895	0.0446	0.0078	-2.0954	0.1249
3456.0000	0.1331	0.1050	-0.0065	-0.0773	0.0250	-0.0080	0.0379	-0.0036	0.0682	0.0668	-0.1406	-0.5237	0.0445	0.0187	-2.0290	0.1460
3464.0000	0.1054	0.1095	-0.0180	-0.0900	0.0149	-0.0088	0.0286	-0.0137	0.0603	0.0673	-0.0993	-0.4589	0.0224	0.0244	-1.9639	0.1572
3472.0000	0.0946	0.1211	-0.0305	-0.0939	0.0205	-0.0013	0.0369	-0.0133	0.0544	0.0693	-0.0691	-0.3996	0.0083	0.0369	-1.9050	0.1647
3480.0000	0.0976	0.1326	-0.0461	-0.0974	0.0301	-0.0003	0.0452	-0.0128	0.0567	0.0722	-0.0376	-0.3417	0.0127	0.0553	-1.8416	0.1764
3488.0000	0.1016	0.1364	-0.0644	-0.1060	0.0298	-0.0077	0.0355	-0.0214	0.0680	0.0723	0.0031	-0.2859	0.0119	0.0632	-1.7730	0.1870
3496.0000	0.1021	0.1347	-0.0826	-0.1103	0.0293	-0.0139	0.0189	-0.0336	0.0761	0.0697	0.0498	-0.2325	-0.0028	0.0574	-1.7031	0.1922
3504.0000	0.1041	0.1328	-0.0927	-0.0987	0.0379	-0.0171	0.0181	-0.0441	0.0704	0.0664	0.0971	-0.1772	-0.0088	0.0502	-1.6268	0.1991
3512.0000	0.1087	0.1318	-0.0888	-0.0787	0.0455	-0.0246	0.0288	-0.0526	0.0591	0.0609	0.1400	-0.1227	0.0036	0.0459	-1.5452	0.2118
3520.0000	0.1056	0.1301	-0.0805	-0.0703	0.0434	-0.0380	0.0240	-0.0582	0.0508	0.0513	0.1778	-0.0749	0.0130	0.0379	-1.4697	0.2243
3528.0000	0.0896	0.1280	-0.0817	-0.0780	0.0357	-0.0503	-0.0033	-0.0606	0.0378	0.0412	0.2197	-0.0275	0.0065	0.0259	-1.3958	0.2341
3536.0000	0.0741	0.1282	-0.0861	-0.0847	0.0259	-0.0547	-0.0240	-0.0589	0.0198	0.0355	0.2694	0.0260	-0.0004	0.0155	-1.3116	0.2408
3544.0000	0.0719	0.1326	-0.0787	-0.0804	0.0160	-0.0503	-0.0164	-0.0459	0.0155	0.0312	0.3131	0.0739	0.0032	0.0063	-1.2289	0.2383
3552.0000	0.0728	0.1386	-0.0652	-0.0754	0.0138	-0.0436	-0.0028	-0.0220	0.0295	0.0242	0.3435	0.1062	0.0048	-0.0029	-1.1650	0.2261
3560.0000	0.0620	0.1432	-0.0595	-0.0775	0.0209	-0.0431	-0.0146	-0.0056	0.0366	0.0204	0.3762	0.1382	-0.0068	-0.0071	-1.1053	0.2176
3568.0000	0.0494	0.1473	-0.0539	-0.0769	0.0255	-0.0479	-0.0384	-0.0080	0.0228	0.0272	0.4176	0.1843	-0.0215	-0.0031	-1.0333	0.2183
3576.0000	0.0524	0.1520	-0.0377	-0.0666	0.0227	-0.0451	-0.0370	-0.0117	0.0078	0.0368	0.4450	0.2293	-0.0228	0.0041	-0.9715	0.2149
3584.0000	0.0650	0.1540	-0.0240	-0.0564	0.0238	-0.0293	-0.0116	-0.0006	0.0078	0.0360	0.4444	0.2548	-0.0087	0.0106	-0.9446	0.2010
3592.0000	0.0705	0.1507	-0.0256	-0.0542	0.0332	-0.0149	0.0043	0.0087	0.0125	0.0273	0.4367	0.2714	0.0061	0.0187	-0.9332	0.1899
3600.0000	0.0707	0.1444	-0.0283	-0.0529	0.0387	-0.0167	0.0029	-0.0029	0.0121	0.0249	0.4395	0.2959	0.0031	0.0283	-0.9107	0.1881
3608.0000	0.0756	0.1384	-0.0187	-0.0452	0.0323	-0.0266	0.0052	-0.0214	0.0123	0.0307	0.4393	0.3220	-0.0178	0.0353	-0.8887	0.1831
3616.0000	0.0814	0.1340	-0.0107	-0.0379	0.0227	-0.0262	0.0137	-0.0252	0.0129	0.0342	0.4229	0.3376	-0.0343	0.0394	-0.8841	0.1689
3624.0000	0.0820	0.1317	-0.0152	-0.0390	0.0183	-0.0154	0.0109	-0.0199	0.0069	0.0318	0.4008	0.3485	-0.0292	0.0423	-0.8852	0.1560
3632.0000	0.0823	0.1278	-0.0174	-0.0437	0.0152	-0.0071	-0.0013	-0.0180	0.0009	0.0293	0.3801	0.3609	-0.0148	0.0397	-0.8853	0.1475
3640.0000	0.0843	0.1164	-0.0049	-0.0430	0.0079	-0.0041	-0.0057	-0.0102	0.0035	0.0253	0.3457	0.3620	-0.0099	0.0271	-0.9056	0.1320
3648.0000	0.0794	0.0990	0.0121	-0.0396	0.0012	0.0005	-0.0043	0.0141	0.0044	0.0140	0.2892	0.3412	-0.0100	0.0100	-0.9561	0.1079
3656.0000	0.0677	0.0874	0.0251	-0.0417	0.0029	0.0055	-0.0087	0.0415	-0.0060	-0.0007	0.2263	0.3105	-0.0033	-0.0021	-1.0149	0.0882
3664.0000	0.0611	0.0892	0.0390	-0.0481	0.0103	0.0056	-0.0119	0.0541	-0.0145	-0.0085	0.1735	0.2874	0.0038	-0.0085	-1.0672	0.0788
3672.0000	0.0613	0.0997	0.0506	-0.0521	0.0141	0.0055	-0.0043	0.0535	-0.0099	-0.0072	0.1306	0.2733	0.0031	-0.0117	-1.1227	0.0730
3680.0000	0.0586	0.1125	0.0456	-0.0545	0.0113	0.0091	-0.0001	0.0462	-0.0055	-0.0002	0.0977	0.2659	0.0010	-0.0070	-1.1812	0.0685
3688.0000	0.0529	0.1270	0.0228	-0.0585	0.0069	0.0066	-0.0120	0.0258	-0.0107	0.0106	0.0840	0.2719	0.0006	0.0086	-1.2224	0.0692
3696.0000	0.0537	0.1417	-0.0045	-0.0564	0.0049	-0.0069	-0.0216	-0.0077	-0.0130	0.0200	0.0866	0.2904	-0.0065	0.0250	-1.2426	0.0718
3704.0000	0.0596	0.1515	-0.0310	-0.0401	0.0061	-0.0166	-0.0093	-0.0348	-0.0058	0.0198	0.0857	0.3033	-0.0164	0.0309	-1.2630	0.0676
3712.0000	0.0615	0.1516	-0.0606	-0.0164	0.0114	-0.0133	0.0069	-0.0455	-0.0031	0.0125	0.0742	0.3015	-0.0165	0.0297	-1.2916	0.0583
3720.0000	0.0617	0.1406	-0.0871	0.0027	0.0174	-0.0097	-0.0014	-0.0568	-0.0098	0.0113	0.0683	0.2999	-0.0137	0.0296	-1.3097	0.0516
3728.0000	0.0701	0.1239	-0.0967	0.0183	0.0166	-0.0131	-0.0220	-0.0778	-0.0099	0.0196	0.0761	0.3106	-0.0207	0.0284	-1.3094	0.0473
3736.0000	0.0851	0.1145	-0.0883	0.0358	0.0152	-0.0067	-0.0140	-0.0844	0.0049	0.0275	0.0816	0.3225	-0.0247	0.0235	-1.3090	0.0424
3744.0000	0.0947	0.1211	-0.0731	0.0503	0.0319	0.0184	0.0300	-0.0550	0.0223	0.0309	0.0770	0.3270	-0.0101	0.0248	-1.3177	0.0438
3752.0000	0.0916	0.1342	-0.0594	0.0555	0.0635	0.0408	0.0709	-0.0099	0.0299	0.0370	0.0807	0.3376	0.0054	0.0411	-1.3171	0.0596
3760.0000	0.0778	0.1378	-0.0507	0.0530	0.0796	0.0390	0.0743	0.0156	0.0272	0.0480	0.1051	0.3658	0.0019	0.0618	-1.2932	0.0830
3768.0000	0.0587	0.1315	-0.0516	0.0440	0.0668	0.0207	0.0477	0.0162	0.0191	0.0560	0.1372	0.4021	-0.0057	0.0685	-1.2554	0.1010
3776.0000	0.0431	0.1276	-0.0611	0.0287	0.0488	0.0057	0.0197	0.0095	0.0128	0.0558	0.1661	0.4363	0.0003	0.0579	-1.2148	0.1106
3784.0000	0.0388	0.1293	-0.0669	0.0159	0.0465	0.0004	0.0086	0.0040	0.0146	0.0516	0.1979	0.4696	0.0073	0.0425	-1.1703	0.1162
3792.0000	0.0418	0.1301	-0.0623	0.0153	0.0519	0.0020	0.0185	0.0005	0.0214	0.0513	0.2313	0.5007	0.0042	0.0338	-1.1248	0.1195
3800.0000	0.0411	0.1284	-0.0572	0.0203	0.0528	0.0075	0.0392	0.0024	0.0254	0.0596	0.2545	0.5249	0.0024	0.0345	-1.0868	0.1226
3808.0000	0.0359	0.1287	-0.0605	0.0190	0.0497	0.0114	0.0461	0.0040	0.0278	0.0736	0.2719	0.5486	0.0057	0.0408	-1.0518	0.1287
3816.0000	0.0331	0.1315	-0.0670	0.0106	0.0432	0.0070	0.0247	-0.0090	0.0346	0.0840	0.2986	0.5808	0.0034	0.0479	-1.0106	0.1334
3824.0000	0.0272	0.1330	-0.0740	-0.0023	0.0343	-0.0063	-0.0031	-0.0342	0.0409	0.0861	0.3328	0.6166	-0.0007	0.0553	-0.9658	0.1292
3832.0000	0.0075	0.1330	-0.0873	-0.0190	0.0330	-0.0203	-0.0066	-0.0484	0.0377	0.0848	0.3657	0.6505	0.0034	0.0636	-0.9198	0.1223
3840.0000	-0.0141	0.1343	-0.0995	-0.0289	0.0413	-0.0235	0.0097	-0.0380	0.0277	0.0840	0.4009	0.6862	0.0031	0.0684	-0.8640	0.1251
3848.0000	-0.0151	0.1355	-0.0931	-0.0215	0.0456	-0.0118	0.0194	-0.0122	0.0211	0.0802	0.4364	0.7189	-0.0110	0.0652	-0.8013	0.1331
3856.0000	-0.0024	0.1302	-0.0746	-0.0118	0.0397	0.0022	0.0155	0.0142	0.0208	0.0728	0.4549	0.7343	-0.0194	0.0591	-0.7497	0.1324
3864.0000	-0.0031	0.1141	-0.0693	-0.0225	0.0328	0.0021	0.0077	0.0342	0.0211	0.0675	0.4548	0.7368	-0.0101	0.0579	-0.7079	0.1244
3872.0000	-0.0165	0.0904	-0.0752	-0.0440	0.0262	-0.0096	-0.0025	0.0470	0.0158	0.0648	0.4539	0.7430	-0.0024	0.0564	-0.6568	0.1191
3880.0000	-0.0176	0.0686	-0.0666	-0.0506	0.0140	-0.0159	-0.0127	0.0571	0.0056	0.0594	0.4512	0.7482	-0.0047	0.0449	-0.6006	0.1134
3888.0000	-0.0057	0.0557	-0.0464	-0.0445	0.0047	-0.0126	-0.0122	0.0686	-0.0017	0.0537	0.4306	0.7364	0.0007	0.0286	-0.5603	0.1007
3896.0000	-0.0026	0.0501	-0.0422	-0.0448	0.0086	-0.0113	-0.0044	0.0768	0.0010	0.0539	0.4018	0.7170	0.0135	0.0217	-0.5289	0.0884
3904.0000	-0.0093	0.0445	-0.0520	-0.0494	0.0158	-0.0154	-0.0047	0.0756	0.0087	0.0545	0.3861	0.7077	0.0137	0.0256	-0.4848	0.0830
3912.0000	-0.0104	0.0333	-0.0516	-0.0483	0.0167	-0.0181	-0.0078	0.0709	0.0102	0.0466	0.3737	0.6986	0.0061	0.0312	-0.4363	0.0764
3920.0000	-0.0096	0.0174	-0.0442	-0.0482	0.0200	-0.0172	0.0015	0.0696	0.0042	0.0352	0.3463	0.6741	0.0104	0.0332	-0.4016	0.0641
3928.0000	-0.0165	0.0032	-0.0484	-0.0536	0.0274	-0.0151	0.0081	0.0660	-0.0009	0.0290	0.3159	0.6443	0.0193	0.0304	-0.3706	0.0563
3936.0000	-0.0197	-0.0042	-0.0531	-0.0513	0.0240	-0.0099	-0.0103	0.0573	-0.0002	0.0257	0.2965	0.6209	0.0172	0.0233	-0.3304	0.0551
3944.0000	-0.0128	-0.0084	-0.0412	-0.0397	0.0128	-0.0035	-0.0313	0.0555	0.0032	0.0220	0.2750	0.5932	0.0136	0.0193	-0.2947	0.0491
3952.0000	-0.0155	-0.0184	-0.0316	-0.0377	0.0154	-0.0047	-0.0177	0.0650	0.0026	0.0214	0.2463	0.5578	0.0144	0.0228	-0.2685	0.0393
3960.0000	-0.0336	-0.0359	-0.0437	-0.0469	0.0309	-0.0126	0.0149	0.0704	-0.0082	0.0198	0.2312	0.5299	0.0031	0.0225	-0.2302	0.0396
3968.0000	-0.0383	-0.0513	-0.0540	-0.0444	0.0382	-0.0141	0.0242	0.0645	-0.0223	0.0067	0.2314	0.5096	-0.0170	0.0091	-0.1759	0.0488
3976.0000	-0.0173	-0.0548	-0.0380	-0.0249	0.0386	-0.0047	0.0106	0.0616	-0.0197	-0.0115	0.2240	0.4774	-0.0171	-0.0025	-0.1318	0.0514
3984.0000	-0.0004	-0.0481	-0.0175	-0.0118	0.0476	0.0037	0.0028	0.0663	0.0049	-0.0158	0.2098	0.4331	0.0029	0.0029	-0.1050	0.0451
3992.0000	-0.0068	-0.0438	-0.0201	-0.0168	0.0582	0.0019	0.0009	0.0629	0.0270	-0.0071	0.2118	0.3953	0.0108	0.0125	-0.0749	0.0388
4000.0000	-0.0165	-0.0502	-0.0306	-0.0241	0.0554	-0.0043	-0.0092	0.0504	0.0280	-0.0050	0.2266	0.3653	-0.0006	0.0087	-0.0376	0.0320
4008.0000	-0.0144	-0.0602	-0.0258	-0.0215	0.0489	-0.0033	-0.0167	0.0510	0.0237	-0.0138	0.2327	0.3302	-0.0098	-0.0001	-0.0079	0.0220
4016.0000	-0.0152	-0.0610	-0.0172	-0.0181	0.0526	0.0060	-0.0102	0.0666	0.0314	-0.0200	0.2335	0.2938	-0.0126	-0.0009	0.0174	0.0164
4024.0000	-0.0277	-0.0560	-0.0235	-0.0245	0.0562	0.0104	-0.0076	0.0680	0.0371	-0.0215	0.2430	0.2671	-0.0187	-0.0031	0.0527	0.0190
4032.0000	-0.0371	-0.0634	-0.0343	-0.0340	0.0476	0.0014	-0.0214	0.0452	0.0255	-0.0284	0.2512	0.2424	-0.0204	-0.0149	0.0916	0.0173
4040.0000	-0.0336	-0.0856	-0.0316	-0.0307	0.0374	-0.0066	-0.0290	0.0296	0.0117	-0.0400	0.2445	0.2052	-0.0097	-0.0244	0.1178	0.0028
4048.0000	-0.0266	-0.0999	-0.0213	-0.0107	0.0385	0.0043	-0.0117	0.0435	0.0118	-0.0456	0.2333	0.1578	-0.0003	-0.0231	0.1322	-0.0136
4056.0000	-0.0242	-0.0919	-0.0180	0.0123	0.0462	0.0227	0.0129	0.0651	0.0151	-0.0442	0.2312	0.1116	-0.0038	-0.0201	0.1460	-0.0196
4064.0000	-0.0229	-0.0761	-0.0207	0.0239	0.0531	0.0234	0.0188	0.0654	0.0117	-0.0429	0.2361	0.0722	-0.0100	-0.0209	0.1635	-0.0180
4072.0000	-0.0210	-0.0709	-0.0224	0.0238	0.0579	0.0094	0.0044	0.0493	0.0127	-0.0424	0.2447	0.0413	-0.0085	-0.0212	0.1845	-0.0168
4080.0000	-0.0235	-0.0727	-0.0263	0.0197	0.0583	0.0012	-0.0175	0.0355	0.0209	-0.0394	0.2602	0.0210	-0.0053	-0.0231	0.2104	-0.0163
4088.0000	-0.0321	-0.0705	-0.0331	0.0158	0.0521	-0.0024	-0.0331	0.0246	0.0182	-0.0355	0.2805	0.0111	-0.0097	-0.0308	0.2426	-0.0117
4096.0000	-0.0388	-0.0641	-0.0308	0.0164	0.0461	-0.0132	-0.0306	0.0127	0.0004	-0.0336	0.2991	0.0090	-0.0219	-0.0362	0.2793	-0.0021
4104.0000	-0.0346	-0.0559	-0.0155	0.0257	0.0467	-0.0203	-0.0127	0.0092	-0.0097	-0.0325	0.3140	0.0101	-0.0306	-0.0334	0.3141	0.0075
4112.0000	-0.0233	-0.0423	-0.0040	0.0362	0.0503	-0.0094	0.0005	0.0202	-0.0001	-0.0287	0.3252	0.0100	-0.0229	-0.0301	0.3386	0.0111
4120.0000	-0.0182	-0.0233	-0.0085	0.0349	0.0522	0.0053	-0.0025	0.0334	0.0116	-0.0213	0.3336	0.0108	-0.0049	-0.0288	0.3546	0.0089
4128.0000	-0.0231	-0.0041	-0.0169	0.0248	0.0537	0.0057	-0.0113	0.0365	0.0105	-0.0111	0.3479	0.0203	-0.0001	-0.0206	0.3747	0.0085
4136.0000	-0.0282	0.0133	-0.0183	0.0191	0.0544	-0.0023	-0.0174	0.0304	0.0070	-0.0010	0.3778	0.0425	-0.0146	-0.0088	0.4052	0.0144
4144.0000	-0.0284	0.0282	-0.0225	0.0168	0.0495	-0.0070	-0.0231	0.0194	0.0137	0.0063	0.4222	0.0740	-0.0280	-0.0081	0.4415	0.0227
4152.0000	-0.0283	0.0359	-0.0343	0.0103	0.0397	-0.0086	-0.0211	0.0090	0.0240	0.0093	0.4699	0.1071	-0.0294	-0.0174	0.4789	0.0268
4160.0000	-0.0272	0.0361	-0.0379	0.0064	0.0318	-0.0045	-0.0028	0.0100	0.0271	0.0068	0.5057	0.1301	-0.0277	-0.0222	0.5090	0.0233
4168.0000	-0.0211	0.0379	-0.0276	0.0127	0.0288	0.0075	0.0143	0.0237	0.0260	0.0008	0.5179	0.1327	-0.0218	-0.0212	0.5167	0.0134
4176.0000	-0.0173	0.0456	-0.0221	0.0179	0.0283	0.0152	0.0091	0.0338	0.0251	-0.0033	0.5126	0.1214	-0.0053	-0.0231	0.5018	0.0017
4184.0000	-0.0231	0.0506	-0.0290	0.0125	0.0296	0.0106	-0.0015	0.0321	0.0213	-0.0033	0.5111	0.1146	0.0035	-0.0248	0.4876	-0.0056
4192.0000	-0.0273	0.0448	-0.0323	0.0074	0.0315	0.0074	0.0074	0.0314	0.0167	-0.0055	0.5198	0.1138	-0.0119	-0.0197	0.4855	-0.0073
4200.0000	-0.0197	0.0298	-0.0268	0.0121	0.0277	0.0141	0.0191	0.0367	0.0207	-0.0148	0.5195	0.0993	-0.0286	-0.0147	0.4769	-0.0084
4208.0000	-0.0132	0.0085	-0.0262	0.0188	0.0145	0.0183	0.0102	0.0358	0.0265	-0.0279	0.4943	0.0599	-0.0212	-0.0196	0.4464	-0.0143
4216.0000	-0.0205	-0.0181	-0.0322	0.0206	0.0001	0.0146	0.0013	0.0272	0.0146	-0.0408	0.4482	0.0034	-0.0058	-0.0325	0.4022	-0.0253
4224.0000	-0.0290	-0.0466	-0.0318	0.0227	-0.0084	0.0144	0.0186	0.0249	-0.0123	-0.0543	0.3849	-0.0617	-0.0052	-0.0446	0.3535	-0.0383
4232.0000	-0.0232	-0.0731	-0.0247	0.0271	-0.0188	0.0199	0.0406	0.0284	-0.0283	-0.0663	0.3006	-0.1338	-0.0104	-0.0517	0.2981	-0.0494
4240.0000	-0.0104	-0.0976	-0.0190	0.0313	-0.0388	0.0231	0.0392	0.0270	-0.0288	-0.0734	0.1976	-0.2106	-0.0099	-0.0550	0.2343	-0.0579
4248.0000	-0.0058	-0.1190	-0.0134	0.0366	-0.0565	0.0278	0.0294	0.0261	-0.0350	-0.0786	0.0850	-0.2898	-0.0105	-0.0587	0.1621	-0.0662
4256.0000	-0.0109	-0.1313	-0.0073	0.0415	-0.0568	0.0374	0.0328	0.0322	-0.0500	-0.0853	-0.0281	-0.3690	-0.0109	-0.0645	0.0817	-0.0750
4264.0000	-0.0179	-0.1327	-0.0072	0.0387	-0.0462	0.0410	0.0395	0.0326	-0.0536	-0.0874	-0.1270	-0.4391	-0.0004	-0.0696	0.0031	-0.0812
4272.0000	-0.0181	-0.1283	-0.0079	0.0328	-0.0392	0.0351	0.0390	0.0226	-0.0443	-0.0811	-0.1970	-0.4936	0.0122	-0.0735	-0.0624	-0.0856
4280.0000	-0.0087	-0.1220	0.0026	0.0352	-0.0353	0.0329	0.0378	0.0206	-0.0399	-0.0743	-0.2408	-0.5398	0.0114	-0.0804	-0.1209	-0.0929
4288.0000	-0.0002	-0.1154	0.0165	0.0397	-0.0291	0.0356	0.0346	0.0299	-0.0386	-0.0729	-0.2704	-0.5854	0.0062	-0.0874	-0.1820	-0.1005
4296.0000	-0.0048	-0.1123	0.0187	0.0341	-0.0253	0.0332	0.0265	0.0304	-0.0269	-0.0719	-0.2876	-0.6256	0.0096	-0.0861	-0.2375	-0.1023
4304.0000	-0.0140	-0.1156	0.0164	0.0284	-0.0245	0.0328	0.0322	0.0235	-0.0136	-0.0700	-0.2951	-0.6592	0.0129	-0.0795	-0.2823	-0.1019
4312.0000	-0.0122	-0.1202	0.0219	0.0377	-0.0180	0.0450	0.0579	0.0305	-0.0135	-0.0728	-0.3053	-0.6950	0.0088	-0.0781	-0.3308	-0.1060
4320.0000	-0.0058	-0.1189	0.0256	0.0512	-0.0081	0.0561	0.0721	0.0431	-0.0145	-0.0766	-0.3162	-0.7304	0.0086	-0.0796	-0.3867	-0.1088
4328.0000	-0.0082	-0.1111	0.0199	0.0528	-0.0074	0.0535	0.0605	0.0375	-0.0008	-0.0729	-0.3088	-0.7534	0.0162	-0.0751	-0.4328	-0.1040
4336.0000	-0.0115	-0.1012	0.0172	0.0497	-0.0110	0.0514	0.0544	0.0245	0.0166	-0.0655	-0.2822	-0.7685	0.0195	-0.0694	-0.4670	-0.0998
4344.0000	-0.0067	-0.0909	0.0200	0.0507	-0.0034	0.0568	0.0662	0.0265	0.0228	-0.0637	-0.2539	-0.7878	0.0141	-0.0703	-0.5044	-0.1037
4352.0000	-0.0085	-0.0761	0.0111	0.0462	0.0108	0.0530	0.0629	0.0282	0.0235	-0.0645	-0.2195	-0.8029	0.0069	-0.0711	-0.5389	-0.1068
4360.0000	-0.0249	-0.0502	-0.0091	0.0334	0.0169	0.0383	0.0370	0.0109	0.0288	-0.0626	-0.1580	-0.8019	0.0000	-0.0671	-0.5521	-0.1037
4368.0000	-0.0347	-0.0161	-0.0199	0.0265	0.0181	0.0340	0.0257	-0.0038	0.0371	-0.0619	-0.0721	-0.7931	-0.0079	-0.0689	-0.5498	-0.1035
4376.0000	-0.0237	0.0084	-0.0179	0.0296	0.0202	0.0420	0.0370	0.0045	0.0464	-0.0626	0.0149	-0.7847	-0.0130	-0.0803	-0.5461	-0.1075
4384.0000	-0.0076	0.0095	-0.0165	0.0339	0.0124	0.0465	0.0381	0.0163	0.0547	-0.0566	0.0890	-0.7691	-0.0110	-0.0875	-0.5385	-0.1041
4392.0000	0.0013	-0.0018	-0.0149	0.0395	-0.0054	0.0485	0.0229	0.0145	0.0559	-0.0446	0.1401	-0.7474	0.0000	-0.0834	-0.5310	-0.0938
4400.0000	0.0087	-0.0021	-0.0080	0.0477	-0.0111	0.0545	0.0161	0.0140	0.0505	-0.0338	0.1613	-0.7283	0.0157	-0.0727	-0.5375	-0.0868
4408.0000	0.0111	0.0130	-0.0071	0.0450	-0.0006	0.0528	0.0173	0.0233	0.0439	-0.0203	0.1691	-0.6966	0.0195	-0.0549	-0.5423	-0.0767
4416.0000	-0.0025	0.0294	-0.0170	0.0285	0.0022	0.0402	0.0092	0.0297	0.0298	0.0021	0.1868	-0.6317	0.0013	-0.0285	-0.5138	-0.0520
4424.0000	-0.0223	0.0377	-0.0215	0.0186	-0.0101	0.0364	-0.0004	0.0315	0.0034	0.0228	0.2032	-0.5522	-0.0164	-0.0065	-0.4653	-0.0237
4432.0000	-0.0309	0.0358	-0.0158	0.0228	-0.0190	0.0454	0.0004	0.0361	-0.0171	0.0309	0.1954	-0.4897	-0.0083	-0.0000	-0.4349	-0.0082
4440.0000	-0.0322	0.0214	-0.0142	0.0237	-0.0216	0.0474	-0.0012	0.0363	-0.0162	0.0329	0.1737	-0.4405	0.0085	-0.0016	-0.4193	-0.0006
4448.0000	-0.0339	0.0009	-0.0156	0.0185	-0.0314	0.0412	-0.0120	0.0286	-0.0114	0.0363	0.1542	-0.3912	0.0059	-0.0029	-0.3964	0.0080
4456.0000	-0.0273	-0.0079	-0.0033	0.0245	-0.0433	0.0442	-0.0146	0.0311	-0.0214	0.0350	0.1202	-0.3569	-0.0004	-0.0068	-0.3816	0.0098
4464.0000	-0.0127	-0.0021	0.0194	0.0387	-0.0440	0.0539	-0.0028	0.0484	-0.0332	0.0276	0.0580	-0.3484	0.0183	-0.0128	-0.3959	0.0029
4472.0000	-0.0101	-0.0022	0.0325	0.0398	-0.0420	0.0550	0.0054	0.0564	-0.0353	0.0240	-0.0100	-0.3433	0.0461	-0.0136	-0.4184	0.0014
4480.0000	-0.0244	-0.0196	0.0331	0.0303	-0.0499	0.0501	-0.0003	0.0433	-0.0430	0.0247	-0.0683	-0.3267	0.0515	-0.0095	-0.4275	0.0081
4488.0000	-0.0358	-0.0395	0.0330	0.0298	-0.0588	0.0462	-0.0114	0.0282	-0.0628	0.0218	-0.1295	-0.3130	0.0402	-0.0046	-0.4378	0.0091
4496.0000	-0.0343	-0.0476	0.0368	0.0368	-0.0586	0.0415	-0.0154	0.0250	-0.0755	0.0184	-0.1932	-0.3062	0.0325	0.0019	-0.4577	0.0037
4504.0000	-0.0286	-0.0458	0.0434	0.0379	-0.0558	0.0438	-0.0032	0.0261	-0.0724	0.0226	-0.2392	-0.2913	0.0274	0.0062	-0.4695	0.0043
4512.0000	-0.0230	-0.0391	0.0500	0.0362	-0.0539	0.0582	0.0206	0.0240	-0.0664	0.0297	-0.2715	-0.2698	0.0225	0.0023	-0.4712	0.0098
4520.0000	-0.0155	-0.0334	0.0473	0.0383	-0.0510	0.0584	0.0330	0.0187	-0.0628	0.0319	-0.3130	-0.2571	0.0278	-0.0023	-0.4805	0.0101
4528.0000	-0.0091	-0.0404	0.0366	0.0388	-0.0538	0.0240	0.0247	0.0111	-0.0596	0.0320	-0.3671	-0.2514	0.0397	0.0032	-0.4976	0.0070
4536.0000	-0.0035	-0.0612	0.0390	0.0380	-0.0648	-0.0131	0.0202	0.0078	-0.0634	0.0337	-0.4264	-0.2451	0.0413	0.0104	-0.5145	0.0076
4544.0000	0.0054	-0.0765	0.0589	0.0450	-0.0672	-0.0166	0.0341	0.0149	-0.0732	0.0341	-0.4945	-0.2452	0.0325	0.0085	-0.5400	0.0108
4552.0000	0.0092	-0.0745	0.0670	0.0539	-0.0547	-0.0059	0.0424	0.0211	-0.0739	0.0346	-0.5634	-0.2505	0.0275	0.0059	-0.5744	0.0159
4560.0000	-0.0014	-0.0691	0.0504	0.0498	-0.0470	-0.0116	0.0308	0.0138	-0.0675	0.0385	-0.6124	-0.2448	0.0305	0.0092	-0.5970	0.0240
4568.0000	-0.0133	-0.0705	0.0393	0.0384	-0.0537	-0.0208	0.0244	0.0051	-0.0720	0.0412	-0.6455	-0.2283	0.0354	0.0090	-0.6049	0.0278
4576.0000	-0.0099	-0.0691	0.0521	0.0363	-0.0587	-0.0157	0.0379	0.0116	-0.0841	0.0403	-0.6852	-0.2177	0.0372	0.0077	-0.6194	0.0230
4584.0000	-0.0005	-0.0607	0.0651	0.0415	-0.0565	-0.0109	0.0488	0.0245	-0.0849	0.0439	-0.7281	-0.2108	0.0310	0.0211	-0.6412	0.0220
4592.0000	-0.0003	-0.0574	0.0599	0.0424	-0.0617	-0.0145	0.0445	0.0286	-0.0794	0.0531	-0.7586	-0.1955	0.0182	0.0405	-0.6535	0.0329
4600.0000	-0.0036	-0.0624	0.0521	0.0394	-0.0733	-0.0110	0.0392	0.0286	-0.0844	0.0558	-0.7900	-0.1821	0.0113	0.0405	-0.6645	0.0419
4608.0000	-0.0015	-0.0647	0.0529	0.0376	-0.0732	-0.0002	0.0390	0.0321	-0.0954	0.0486	-0.8396	-0.1844	0.0174	0.0252	-0.6918	0.0377
4616.0000	0.0006	-0.0615	0.0525	0.0368	-0.0593	0.0022	0.0405	0.0347	-0.1013	0.0431	-0.8911	-0.1896	0.0320	0.0181	-0.7241	0.0317
4624.0000	-0.0000	-0.0582	0.0487	0.0377	-0.0445	0.0014	0.0527	0.0373	-0.1059	0.0447	-0.9246	-0.1832	0.0499	0.0178	-0.7442	0.0347
4632.0000	0.0008	-0.0534	0.0482	0.0385	-0.0330	0.0090	0.0738	0.0459	-0.1100	0.0488	-0.9458	-0.1702	0.0612	0.0137	-0.7581	0.0417
4640.0000	-0.0007	-0.0444	0.0457	0.0314	-0.0252	0.0134	0.0762	0.0520	-0.1043	0.0549	-0.9583	-0.1515	0.0475	0.0156	-0.7693	0.0495
4648.0000	-0.0054	-0.0351	0.0387	0.0192	-0.0254	0.0080	0.0555	0.0448	-0.0932	0.0637	-0.9537	-0.1181	0.0173	0.0279	-0.7665	0.0599
4656.0000	-0.0010	-0.0244	0.0384	0.0167	-0.0260	0.0112	0.0453	0.0366	-0.0880	0.0688	-0.9394	-0.0807	0.0108	0.0308	-0.7575	0.0663
4664.0000	0.0106	-0.0043	0.0416	0.0200	-0.0139	0.0248	0.0551	0.0405	-0.0806	0.0702	-0.9238	-0.0567	0.0357	0.0216	-0.7610	0.0642
4672.0000	0.0066	0.0205	0.0284	0.0076	0.0020	0.0239	0.0521	0.0435	-0.0616	0.0780	-0.8830	-0.0296	0.0473	0.0247	-0.7589	0.0665
4680.0000	-0.0120	0.0358	0.0065	-0.0155	0.0026	0.0092	0.0302	0.0333	-0.0446	0.0900	-0.8000	0.0263	0.0287	0.0419	-0.7215	0.0812
4688.0000	-0.0150	0.0415	0.0058	-0.0193	-0.0057	0.0108	0.0248	0.0253	-0.0423	0.0914	-0.7124	0.0930	0.0191	0.0477	-0.6693	0.0935
4696.0000	0.0013	0.0475	0.0223	-0.0035	-0.0043	0.0281	0.0417	0.0313	-0.0434	0.0831	-0.6609	0.1359	0.0317	0.0413	-0.6431	0.0925
4704.0000	0.0062	0.0526	0.0252	0.0008	0.0030	0.0307	0.0458	0.0336	-0.0380	0.0808	-0.6270	0.1615	0.0307	0.0433	-0.6337	0.0904
4712.0000	-0.0062	0.0501	0.0144	-0.0116	0.0017	0.0189	0.0312	0.0228	-0.0317	0.0847	-0.5783	0.1949	0.0124	0.0492	-0.6078	0.0944
4720.0000	-0.0110	0.0433	0.0139	-0.0151	-0.0044	0.0211	0.0308	0.0204	-0.0280	0.0810	-0.5316	0.2285	0.0149	0.0435	-0.5746	0.0930
4728.0000	-0.0052	0.0375	0.0190	-0.0047	-0.0067	0.0370	0.0490	0.0379	-0.0278	0.0715	-0.5158	0.2457	0.0345	0.0397	-0.5612	0.0850
4736.0000	-0.0058	0.0306	0.0118	0.0006	-0.0098	0.0406	0.0526	0.0493	-0.0386	0.0701	-0.5166	0.2612	0.0293	0.0536	-0.5559	0.0866
4744.0000	-0.0072	0.0229	0.0052	0.0006	-0.0157	0.0306	0.0335	0.0359	-0.0531	0.0759	-0.5087	0.2896	0.0070	0.0671	-0.5372	0.0964
4752.0000	0.0044	0.0194	0.0168	0.0099	-0.0137	0.0271	0.0228	0.0189	-0.0465	0.0767	-0.4971	0.3115	0.0119	0.0630	-0.5219	0.0929
4760.0000	0.0146	0.0211	0.0293	0.0220	-0.0005	0.0325	0.0367	0.0218	-0.0179	0.0727	-0.4896	0.3111	0.0383	0.0574	-0.5300	0.0743
4768.0000	0.0048	0.0282	0.0211	0.0194	0.0137	0.0311	0.0532	0.0315	0.0048	0.0740	-0.4651	0.3115	0.0428	0.0641	-0.5363	0.0647
4776.0000	-0.0139	0.0434	0.0021	0.0051	0.0205	0.0190	0.0485	0.0248	0.0125	0.0803	-0.4044	0.3376	0.0220	0.0669	-0.5070	0.0734
4784.0000	-0.0257	0.0600	-0.0106	-0.0061	0.0188	0.0054	0.0277	0.0052	0.0215	0.0807	-0.3222	0.3756	0.0047	0.0539	-0.4523	0.0815
4792.0000	-0.0330	0.0630	-0.0166	-0.0117	0.0110	-0.0033	0.0113	-0.0098	0.0336	0.0705	-0.2467	0.3991	-0.0012	0.0389	-0.4065	0.0751
4800.0000	-0.0371	0.0544	-0.0161	-0.0143	0.0066	-0.0080	0.0088	-0.0142	0.0393	0.0577	-0.1866	0.4075	-0.0038	0.0337	-0.3787	0.0620
4808.0000	-0.0335	0.0545	-0.0074	-0.0115	0.0149	-0.0114	0.0119	-0.0133	0.0458	0.0535	-0.1307	0.4181	-0.0031	0.0337	-0.3527	0.0541
4816.0000	-0.0292	0.0715	-0.0007	-0.0043	0.0273	-0.0140	0.0108	-0.0131	0.0574	0.0598	-0.0677	0.4408	-0.0035	0.0355	-0.3167	0.0530
4824.0000	-0.0328	0.0930	-0.0021	0.0006	0.0305	-0.0136	0.0092	-0.0170	0.0583	0.0661	-0.0004	0.4715	-0.0110	0.0395	-0.2740	0.0541
4832.0000	-0.0357	0.1104	-0.0004	0.0002	0.0321	-0.0104	0.0141	-0.0204	0.0470	0.0649	0.0595	0.5000	-0.0128	0.0422	-0.2329	0.0544
4840.0000	-0.0346	0.1236	0.0065	-0.0051	0.0458	-0.0116	0.0174	-0.0137	0.0467	0.0636	0.1128	0.5228	-0.0004	0.0426	-0.1925	0.0563
4848.0000	-0.0432	0.1266	0.0013	-0.0160	0.0633	-0.0210	0.0065	-0.0026	0.0595	0.0708	0.1785	0.5524	0.0039	0.0446	-0.1376	0.0654
4856.0000	-0.0603	0.1146	-0.0173	-0.0271	0.0685	-0.0308	-0.0103	-0.0070	0.0610	0.0783	0.2647	0.5996	-0.0144	0.0451	-0.0594	0.0795
4864.0000	-0.0638	0.1010	-0.0278	-0.0289	0.0660	-0.0326	-0.0145	-0.0269	0.0506	0.0739	0.3475	0.6494	-0.0303	0.0371	0.0231	0.0849
4872.0000	-0.0510	0.1036	-0.0243	-0.0217	0.0677	-0.0302	-0.0070	-0.0368	0.0511	0.0630	0.4025	0.6787	-0.0243	0.0280	0.0843	0.0756
4880.0000	-0.0440	0.1212	-0.0212	-0.0150	0.0709	-0.0305	-0.0031	-0.0278	0.0632	0.0595	0.4404	0.6923	-0.0168	0.0311	0.1291	0.0649
4888.0000	-0.0502	0.1374	-0.0238	-0.0146	0.0696	-0.0333	-0.0058	-0.0208	0.0703	0.0637	0.4854	0.7120	-0.0236	0.0417	0.1816	0.0659
4896.0000	-0.0593	0.1430	-0.0298	-0.0240	0.0677	-0.0379	-0.0107	-0.0282	0.0716	0.0651	0.5392	0.7409	-0.0303	0.0459	0.2471	0.0721
4904.0000	-0.0698	0.1427	-0.0430	-0.0442	0.0653	-0.0469	-0.0229	-0.0373	0.0706	0.0609	0.5909	0.7707	-0.0313	0.0438	0.3164	0.0723
4912.0000	-0.0817	0.1447	-0.0546	-0.0625	0.0557	-0.0546	-0.0439	-0.0406	0.0615	0.0562	0.6399	0.8042	-0.0430	0.0432	0.3884	0.0687
4920.0000	-0.0848	0.1495	-0.0459	-0.0627	0.0424	-0.0508	-0.0594	-0.0456	0.0516	0.0523	0.6851	0.8427	-0.0616	0.0416	0.4606	0.0663
4928.0000	-0.0826	0.1514	-0.0298	-0.0551	0.0356	-0.0431	-0.0634	-0.0523	0.0553	0.0461	0.7162	0.8721	-0.0638	0.0337	0.5183	0.0614
4936.0000	-0.0932	0.1498	-0.0396	-0.0641	0.0327	-0.0494	-0.0665	-0.0535	0.0615	0.0364	0.7367	0.8903	-0.0540	0.0244	0.5640	0.0529
4944.0000	-0.1096	0.1501	-0.0663	-0.0834	0.0266	-0.0630	-0.0674	-0.0514	0.0515	0.0243	0.7655	0.9149	-0.0565	0.0187	0.6215	0.0484
4952.0000	-0.1033	0.1492	-0.0693	-0.0836	0.0231	-0.0574	-0.0534	-0.0506	0.0399	0.0124	0.8023	0.9459	-0.0672	0.0146	0.6914	0.0492
4960.0000	-0.0777	0.1339	-0.0495	-0.0646	0.0292	-0.0344	-0.0362	-0.0485	0.0467	0.0055	0.8235	0.9585	-0.0652	0.0132	0.7429	0.0465
4968.0000	-0.0638	0.1053	-0.0423	-0.0551	0.0369	-0.0268	-0.0397	-0.0476	0.0579	0.0063	0.8246	0.9497	-0.0568	0.0200	0.7681	0.0375
4976.0000	-0.0651	0.0857	-0.0512	-0.0607	0.0381	-0.0424	-0.0535	-0.0543	0.0580	0.0106	0.8272	0.9446	-0.0593	0.0298	0.7940	0.0306
4984.0000	-0.0616	0.0873	-0.0536	-0.0612	0.0365	-0.0503	-0.0533	-0.0622	0.0608	0.0113	0.8394	0.9505	-0.0632	0.0291	0.8307	0.0291
4992.0000	-0.0549	0.0954	-0.0517	-0.0528	0.0333	-0.0383	-0.0520	-0.0630	0.0701	0.0078	0.8449	0.9478	-0.0548	0.0173	0.8593	0.0270
5000.0000	-0.0565	0.0952	-0.0564	-0.0497	0.0251	-0.0331	-0.0692	-0.0640	0.0645	0.0042	0.8357	0.9309	-0.0484	0.0096	0.8752	0.0202
5008.0000	-0.0531	0.0928	-0.0521	-0.0507	0.0203	-0.0466	-0.0784	-0.0676	0.0463	0.0021	0.8204	0.9136	-0.0561	0.0149	0.8917	0.0107
5016.0000	-0.0315	0.0954	-0.0305	-0.0441	0.0308	-0.0531	-0.0549	-0.0571	0.0467	0.0003	0.8040	0.8998	-0.0601	0.0256	0.9068	0.0027
5024.0000	-0.0103	0.0948	-0.0175	-0.0351	0.0455	-0.0403	-0.0356	-0.0330	0.0655	-0.0003	0.7874	0.8854	-0.0478	0.0331	0.9139	0.0018
5032.0000	-0.0079	0.0840	-0.0268	-0.0349	0.0433	-0.0296	-0.0572	-0.0231	0.0704	0.0007	0.7783	0.8755	-0.0380	0.0368	0.9280	0.0107
5040.0000	-0.0095	0.0702	-0.0334	-0.0381	0.0279	-0.0302	-0.0870	-0.0331	0.0576	-0.0011	0.7775	0.8711	-0.0411	0.0364	0.9586	0.0210
5048.0000	0.0039	0.0628	-0.0217	-0.0326	0.0225	-0.0237	-0.0848	-0.0359	0.0530	-0.0098	0.7699	0.8582	-0.0386	0.0292	0.9837	0.0209
5056.0000	0.0256	0.0622	-0.0080	-0.0190	0.0314	-0.0067	-0.0720	-0.0225	0.0598	-0.0204	0.7472	0.8311	-0.0226	0.0180	0.9868	0.0120
5064.0000	0.0426	0.0648	-0.0035	-0.0050	0.0382	0.0005	-0.0765	-0.0129	0.0621	-0.0226	0.7203	0.8022	-0.0119	0.0133	0.9853	0.0056
5072.0000	0.0537	0.0667	-0.0000	0.0044	0.0349	-0.0059	-0.0788	-0.0110	0.0611	-0.0166	0.6971	0.7761	-0.0119	0.0203	0.9928	0.0046
5080.0000	0.0592	0.0626	0.0027	0.0048	0.0269	-0.0098	-0.0659	-0.0050	0.0636	-0.0149	0.6685	0.7409	-0.0050	0.0316	0.9929	0.0014
5088.0000	0.0586	0.0507	-0.0013	-0.0029	0.0173	-0.0098	-0.0622	-0.0020	0.0589	-0.0243	0.6278	0.6928	0.0095	0.0361	0.9725	-0.0072
5096.0000	0.0576	0.0339	-0.0042	-0.0098	0.0064	-0.0170	-0.0721	-0.0118	0.0420	-0.0363	0.5806	0.6409	0.0131	0.0316	0.9439	-0.0161
5104.0000	0.0605	0.0121	0.0021	-0.0107	-0.0021	-0.0280	-0.0679	-0.0182	0.0295	-0.0425	0.5313	0.5883	0.0068	0.0246	0.9164	-0.0225
5112.0000	0.0634	-0.0181	0.0097	-0.0097	-0.0074	-0.0317	-0.0504	-0.0097	0.0292	-0.0490	0.4740	0.5274	0.0085	0.0179	0.8799	-0.0303
5120.0000	0.0657	-0.0518	0.0135	-0.0078	-0.0136	-0.0292	-0.0453	-0.0015	0.0273	-0.0631	0.4045	0.4551	0.0176	0.0069	0.8265	-0.0426
5128.0000	0.0722	-0.0742	0.0208	-0.0011	-0.0190	-0.0248	-0.0442	-0.0008	0.0175	-0.0764	0.3303	0.3783	0.0230	-0.0088	0.7655	-0.0544
5136.0000	0.0783	-0.0792	0.0301	0.0054	-0.0170	-0.0182	-0.0263	0.0055	0.0105	-0.0758	0.2672	0.3101	0.0274	-0.0173	0.7118	-0.0571
5144.0000	0.0757	-0.0774	0.0300	0.0036	-0.0109	-0.0137	-0.0118	0.0149	0.0094	-0.0656	0.2240	0.2602	0.0333	-0.0087	0.6731	-0.0494
5152.0000	0.0694	-0.0784	0.0234	-0.0014	-0.0091	-0.0166	-0.0244	0.0104	0.0067	-0.0601	0.1940	0.2248	0.0298	0.0081	0.6454	-0.0413
5160.0000	0.0686	-0.0771	0.0230	-0.0011	-0.0096	-0.0206	-0.0407	-0.0018	0.0020	-0.0603	0.1661	0.1924	0.0176	0.0154	0.6183	-0.0398
5168.0000	0.0694	-0.0665	0.0272	-0.0019	-0.0076	-0.0201	-0.0368	-0.0056	0.0006	-0.0557	0.1430	0.1632	0.0145	0.0111	0.5898	-0.0387
5176.0000	0.0655	-0.0515	0.0278	-0.0097	-0.0079	-0.0198	-0.0308	-0.0070	0.0014	-0.0439	0.1335	0.1469	0.0211	0.0072	0.5691	-0.0304
5184.0000	0.0628	-0.0382	0.0304	-0.0123	-0.0118	-0.0197	-0.0347	-0.0128	0.0014	-0.0321	0.1314	0.1406	0.0218	0.0082	0.5565	-0.0202
5192.0000	0.0652	-0.0242	0.0399	-0.0024	-0.0086	-0.0137	-0.0282	-0.0100	0.0032	-0.0220	0.1222	0.1320	0.0218	0.0082	0.5395	-0.0161
5200.0000	0.0620	-0.0091	0.0449	0.0035	0.0024	-0.0101	-0.0122	0.0014	0.0086	-0.0108	0.1097	0.1235	0.0339	0.0073	0.5186	-0.0135
5208.0000	0.0471	-0.0040	0.0364	-0.0072	0.0040	-0.0198	-0.0152	0.0015	0.0122	-0.0052	0.1093	0.1254	0.0403	0.0097	0.5104	-0.0066
5216.0000	0.0323	-0.0141	0.0257	-0.0196	-0.0095	-0.0291	-0.0329	-0.0070	0.0094	-0.0145	0.1155	0.1281	0.0218	0.0108	0.5139	-0.0021
5224.0000	0.0281	-0.0282	0.0247	-0.0177	-0.0207	-0.0209	-0.0331	-0.0023	0.0018	-0.0334	0.1067	0.1110	0.0024	0.0027	0.5055	-0.0087
5232.0000	0.0298	-0.0369	0.0281	-0.0104	-0.0211	-0.0102	-0.0200	0.0085	-0.0046	-0.0456	0.0794	0.0755	0.0099	-0.0086	0.4755	-0.0212
5240.0000	0.0303	-0.0478	0.0269	-0.0121	-0.0226	-0.0165	-0.0214	0.0032	-0.0046	-0.0464	0.0516	0.0396	0.0245	-0.0131	0.4405	-0.0307
5248.0000	0.0299	-0.0679	0.0219	-0.0192	-0.0291	-0.0267	-0.0299	-0.0075	-0.0000	-0.0459	0.0317	0.0074	0.0197	-0.0149	0.4112	-0.0378
5256.0000	0.0287	-0.0886	0.0155	-0.0241	-0.0311	-0.0253	-0.0237	-0.0038	0.0008	-0.0505	0.0098	-0.0296	0.0106	-0.0232	0.3806	-0.0459
5264.0000	0.0250	-0.0980	0.0063	-0.0295	-0.0311	-0.0240	-0.0151	-0.0002	-0.0045	-0.0557	-0.0196	-0.0714	0.0137	-0.0336	0.3462	-0.0531
5272.0000	0.0234	-0.0947	-0.0022	-0.0352	-0.0397	-0.0301	-0.0206	-0.0124	-0.0066	-0.0586	-0.0495	-0.1111	0.0113	-0.0361	0.3151	-0.0592
5280.0000	0.0297	-0.0810	-0.0013	-0.0325	-0.0474	-0.0261	-0.0229	-0.0186	0.0021	-0.0616	-0.0774	-0.1504	-0.0027	-0.0334	0.2848	-0.0693
5288.0000	0.0379	-0.0623	0.0066	-0.0221	-0.0390	-0.0091	-0.0103	-0.0035	0.0156	-0.0634	-0.1071	-0.1924	-0.0007	-0.0320	0.2460	-0.0823
5296.0000	0.0361	-0.0512	0.0067	-0.0188	-0.0256	-0.0038	-0.0055	0.0085	0.0220	-0.0584	-0.1330	-0.2272	0.0214	-0.0287	0.2055	-0.0881
5304.0000	0.0253	-0.0565	-0.0059	-0.0266	-0.0260	-0.0173	-0.0181	-0.0009	0.0176	-0.0482	-0.1401	-0.2419	0.0265	-0.0216	0.1825	-0.0824
5312.0000	0.0188	-0.0671	-0.0158	-0.0302	-0.0321	-0.0259	-0.0220	-0.0126	0.0085	-0.0416	-0.1286	-0.2400	0.0038	-0.0186	0.1788	-0.0743
5320.0000	0.0225	-0.0661	-0.0092	-0.0199	-0.0270	-0.0179	-0.0068	-0.0098	0.0043	-0.0393	-0.1180	-0.2381	-0.0110	-0.0216	0.1752	-0.0720
5328.0000	0.0280	-0.0537	0.0046	-0.0085	-0.0181	-0.0064	0.0020	-0.0047	0.0098	-0.0335	-0.1204	-0.2448	0.0004	-0.0206	0.1598	-0.0715
5336.0000	0.0273	-0.0419	0.0080	-0.0108	-0.0194	-0.0006	-0.0074	-0.0076	0.0176	-0.0227	-0.1257	-0.2533	0.0147	-0.0138	0.1420	-0.0649
5344.0000	0.0241	-0.0347	0.0020	-0.0219	-0.0241	0.0030	-0.0148	-0.0102	0.0171	-0.0150	-0.1232	-0.2557	0.0164	-0.0131	0.1327	-0.0535
5352.0000	0.0235	-0.0281	0.0011	-0.0270	-0.0199	0.0055	-0.0107	-0.0061	0.0110	-0.0133	-0.1181	-0.2537	0.0151	-0.0206	0.1279	-0.0431
5360.0000	0.0224	-0.0206	0.0068	-0.0240	-0.0128	0.0066	-0.0093	-0.0005	0.0087	-0.0128	-0.1178	-0.2524	0.0131	-0.0230	0.1197	-0.0360
5368.0000	0.0169	-0.0131	0.0081	-0.0207	-0.0115	0.0100	-0.0149	0.0028	0.0082	-0.0123	-0.1184	-0.2518	0.0032	-0.0168	0.1099	-0.0315
5376.0000	0.0134	-0.0058	0.0053	-0.0187	-0.0109	0.0161	-0.0134	0.0054	0.0025	-0.0149	-0.1164	-0.2510	-0.0042	-0.0146	0.1018	-0.0308
5384.0000	0.0199	-0.0026	0.0086	-0.0133	-0.0046	0.0194	0.0000	0.0096	-0.0007	-0.0161	-0.1171	-0.2522	0.0073	-0.0199	0.0908	-0.0323
5392.0000	0.0306	-0.0082	0.0159	-0.0074	0.0028	0.0168	0.0124	0.0155	0.0089	-0.0093	-0.1201	-0.2536	0.0262	-0.0202	0.0752	-0.0294
5400.0000	0.0298	-0.0189	0.0130	-0.0113	0.0031	0.0066	0.0109	0.0166	0.0196	0.0005	-0.1143	-0.2476	0.0266	-0.0106	0.0656	-0.0190
5408.0000	0.0133	-0.0246	-0.0015	-0.0263	-0.0051	-0.0123	-0.0028	0.0056	0.0116	0.0026	-0.0956	-0.2310	0.0065	-0.0026	0.0719	-0.0088
5416.0000	-0.0045	-0.0213	-0.0117	-0.0407	-0.0166	-0.0312	-0.0154	-0.0103	-0.0101	-0.0040	-0.0757	-0.2126	-0.0108	-0.0052	0.0858	-0.0092
5424.0000	-0.0100	-0.0120	-0.0107	-0.0453	-0.0237	-0.0369	-0.0175	-0.0150	-0.0231	-0.0115	-0.0657	-0.2033	-0.0106	-0.0141	0.0913	-0.0189
5432.0000	-0.0070	0.0005	-0.0093	-0.0426	-0.0242	-0.0310	-0.0152	-0.0091	-0.0209	-0.0149	-0.0627	-0.2009	-0.0030	-0.0208	0.0888	-0.0271
5440.0000	-0.0065	0.0108	-0.0137	-0.0387	-0.0230	-0.0258	-0.0181	-0.0065	-0.0161	-0.0137	-0.0565	-0.1941	-0.0044	-0.0223	0.0921	-0.0267
5448.0000	-0.0086	0.0094	-0.0156	-0.0342	-0.0220	-0.0231	-0.0197	-0.0085	-0.0179	-0.0107	-0.0460	-0.1809	-0.0156	-0.0208	0.1028	-0.0230
5456.0000	-0.0055	-0.0061	-0.0089	-0.0288	-0.0174	-0.0176	-0.0079	-0.0058	-0.0235	-0.0119	-0.0421	-0.1738	-0.0232	-0.0211	0.1043	-0.0245
5464.0000	0.0020	-0.0219	-0.0013	-0.0254	-0.0103	-0.0126	0.0098	0.0000	-0.0279	-0.0192	-0.0505	-0.1800	-0.0185	-0.0241	0.0895	-0.0303
5472.0000	0.0058	-0.0236	0.0002	-0.0236	-0.0078	-0.0126	0.0182	0.0015	-0.0286	-0.0230	-0.0598	-0.1868	-0.0074	-0.0245	0.0749	-0.0316
5480.0000	0.0060	-0.0150	0.0003	-0.0177	-0.0066	-0.0104	0.0201	0.0026	-0.0259	-0.0165	-0.0576	-0.1797	-0.0001	-0.0208	0.0745	-0.0258
5488.0000	0.0112	-0.0100	0.0049	-0.0052	0.0030	0.0007	0.0270	0.0087	-0.0232	-0.0078	-0.0506	-0.1657	0.0003	-0.0187	0.0783	-0.0200
5496.0000	0.0225	-0.0113	0.0120	0.0084	0.0164	0.0149	0.0345	0.0135	-0.0203	-0.0057	-0.0515	-0.1596	-0.0017	-0.0180	0.0718	-0.0184
5504.0000	0.0292	-0.0104	0.0164	0.0155	0.0214	0.0227	0.0344	0.0139	-0.0117	-0.0043	-0.0553	-0.1585	0.0007	-0.0097	0.0605	-0.0154
5512.0000	0.0252	-0.0055	0.0157	0.0134	0.0208	0.0198	0.0316	0.0171	0.0017	0.0030	-0.0501	-0.1505	0.0089	0.0041	0.0572	-0.0077
5520.0000	0.0164	-0.0038	0.0090	0.0028	0.0237	0.0076	0.0304	0.0214	0.0086	0.0094	-0.0393	-0.1375	0.0136	0.0081	0.0613	-0.0010
5528.0000	0.0109	-0.0071	-0.0004	-0.0105	0.0239	-0.0054	0.0243	0.0156	0.0035	0.0075	-0.0332	-0.1303	0.0038	-0.0015	0.0657	-0.0002
5536.0000	0.0085	-0.0092	-0.0046	-0.0163	0.0137	-0.0087	0.0137	0.0025	-0.0057	0.0018	-0.0324	-0.1294	-0.0133	-0.0102	0.0680	-0.0026
5544.0000	0.0052	-0.0081	-0.0014	-0.0113	0.0030	-0.0044	0.0088	-0.0010	-0.0113	-0.0016	-0.0353	-0.1308	-0.0191	-0.0115	0.0656	-0.0060
5552.0000	0.0015	-0.0089	0.0016	-0.0048	0.0025	-0.0036	0.0086	0.0067	-0.0135	-0.0043	-0.0449	-0.1356	-0.0124	-0.0134	0.0560	-0.0109
5560.0000	0.0014	-0.0132	0.0005	-0.0047	0.0055	-0.0071	0.0044	0.0112	-0.0123	-0.0069	-0.0572	-0.1432	-0.0093	-0.0179	0.0450	-0.0159
5568.0000	0.0045	-0.0159	0.0004	-0.0068	0.0062	-0.0063	0.0003	0.0094	-0.0062	-0.0058	-0.0621	-0.1478	-0.0141	-0.0167	0.0386	-0.0187
5576.0000	0.0049	-0.0132	0.0014	-0.0073	0.0117	-0.0014	0.0072	0.0130	-0.0002	-0.0005	-0.0606	-0.1479	-0.0154	-0.0094	0.0334	-0.0185
5584.0000	0.0015	-0.0074	-0.0039	-0.0096	0.0227	0.0022	0.0218	0.0230	-0.0005	0.0047	-0.0587	-0.1452	-0.0129	-0.0042	0.0287	-0.0139
5592.0000	0.0022	-0.0047	-0.0122	-0.0104	0.0286	0.0062	0.0323	0.0271	-0.0041	0.0060	-0.0555	-0.1410	-0.0158	-0.0025	0.0293	-0.0067
5600.0000	0.0109	-0.0085	-0.0111	-0.0011	0.0289	0.0124	0.0333	0.0219	-0.0054	0.0034	-0.0538	-0.1408	-0.0177	-0.0002	0.0279	-0.0057
5608.0000	0.0169	-0.0170	-0.0030	0.0117	0.0312	0.0148	0.0229	0.0165	-0.0063	0.0009	-0.0613	-0.1494	-0.0082	0.0029	0.0135	-0.0137
5616.0000	0.0108	-0.0230	-0.0020	0.0118	0.0317	0.0111	0.0049	0.0156	-0.0095	0.0039	-0.0695	-0.1548	-0.0003	0.0054	-0.0007	-0.0175
5624.0000	0.0016	-0.0193	-0.0063	0.0034	0.0236	0.0096	-0.0035	0.0157	-0.0120	0.0107	-0.0637	-0.1432	-0.0126	0.0073	0.0056	-0.0086
5632.0000	0.0017	-0.0028	-0.0025	0.0054	0.0178	0.0134	0.0081	0.0169	-0.0121	0.0137	-0.0538	-0.1270	-0.0316	0.0075	0.0183	-0.0002
5640.0000	0.0062	0.0217	0.0056	0.0168	0.0255	0.0148	0.0230	0.0212	-0.0123	0.0125	-0.0579	-0.1255	-0.0296	0.0073	0.0126	-0.0035
5648.0000	0.0055	0.0374	0.0047	0.0218	0.0347	0.0092	0.0212	0.0237	-0.0114	0.0147	-0.0628	-0.1281	-0.0099	0.0116	0.0014	-0.0076
5656.0000	0.0045	0.0270	-0.0004	0.0210	0.0316	0.0015	0.0116	0.0203	-0.0068	0.0199	-0.0502	-0.1168	0.0017	0.0191	0.0073	-0.0029
5664.0000	0.0097	-0.0035	0.0011	0.0243	0.0265	-0.0036	0.0129	0.0171	-0.0031	0.0205	-0.0379	-0.1046	-0.0033	0.0216	0.0151	0.0016
5672.0000	0.0142	-0.0235	0.0008	0.0259	0.0316	-0.0066	0.0222	0.0189	-0.0054	0.0177	-0.0449	-0.1085	-0.0111	0.0201	0.0037	-0.0006
5680.0000	0.0138	-0.0129	-0.0090	0.0191	0.0374	-0.0101	0.0261	0.0196	-0.0084	0.0178	-0.0533	-0.1144	-0.0113	0.0225	-0.0109	-0.0025
5688.0000	0.0171	0.0131	-0.0136	0.0170	0.0341	-0.0151	0.0234	0.0168	-0.0048	0.0179	-0.0459	-0.1082	-0.0038	0.0264	-0.0114	-0.0026
5696.0000	0.0232	0.0269	-0.0056	0.0251	0.0296	-0.0214	0.0177	0.0187	-0.0004	0.0142	-0.0403	-0.1034	0.0080	0.0238	-0.0129	-0.0056
5704.0000	0.0171	0.0204	-0.0053	0.0249	0.0278	-0.0282	0.0090	0.0248	-0.0064	0.0129	-0.0461	-0.1076	0.0163	0.0185	-0.0222	-0.0051
5712.0000	0.0018	0.0033	-0.0200	0.0110	0.0184	-0.0347	0.0028	0.0220	-0.0219	0.0150	-0.0469	-0.1078	0.0157	0.0170	-0.0215	0.0038
5720.0000	0.0008	-0.0118	-0.0229	0.0071	0.0035	-0.0369	0.0081	0.0116	-0.0338	0.0112	-0.0448	-0.1061	0.0138	0.0139	-0.0160	0.0057
5728.0000	0.0162	-0.0146	-0.0038	0.0209	0.0028	-0.0318	0.0199	0.0124	-0.0334	0.0022	-0.0612	-0.1216	0.0199	0.0070	-0.0335	-0.0080
5736.0000	0.0205	-0.0026	0.0067	0.0269	0.0171	-0.0282	0.0226	0.0241	-0.0258	0.0011	-0.0842	-0.1459	0.0257	0.0066	-0.0655	-0.0181
5744.0000	0.0034	0.0107	-0.0084	0.0128	0.0223	-0.0391	0.0109	0.0245	-0.0239	0.0067	-0.0835	-0.1528	0.0197	0.0109	-0.0762	-0.0123
5752.0000	-0.0123	0.0105	-0.0219	-0.0010	0.0096	-0.0578	-0.0056	0.0104	-0.0321	0.0041	-0.0674	-0.1469	0.0112	0.0031	-0.0676	-0.0092
5760.0000	-0.0134	-0.0004	-0.0142	-0.0030	-0.0012	-0.0646	-0.0170	0.0034	-0.0392	-0.0046	-0.0620	-0.1494	0.0157	-0.0145	-0.0677	-0.0211
5768.0000	-0.0154	-0.0129	-0.0064	-0.0066	0.0012	-0.0606	-0.0218	0.0075	-0.0350	-0.0042	-0.0570	-0.1533	0.0256	-0.0190	-0.0713	-0.0303
5776.0000	-0.0263	-0.0277	-0.0145	-0.0167	0.0043	-0.0647	-0.0225	0.0038	-0.0279	0.0028	-0.0332	-0.1421	0.0241	-0.0078	-0.0574	-0.0258
5784.0000	-0.0312	-0.0429	-0.0206	-0.0216	0.0016	-0.0718	-0.0209	-0.0098	-0.0317	0.0022	-0.0085	-0.1278	0.0138	-0.0026	-0.0378	-0.0218
5792.0000	-0.0220	-0.0437	-0.0112	-0.0192	0.0026	-0.0571	-0.0163	-0.0146	-0.0402	-0.0043	-0.0030	-0.1270	0.0076	-0.0085	-0.0340	-0.0253
5800.0000	-0.0119	-0.0235	-0.0015	-0.0179	0.0094	-0.0231	-0.0100	-0.0084	-0.0370	-0.0059	-0.0018	-0.1298	0.0058	-0.0104	-0.0366	-0.0254
5808.0000	-0.0103	0.0008	-0.0026	-0.0175	0.0128	0.0010	-0.0059	-0.0056	-0.0259	-0.0041	0.0102	-0.1242	0.0068	-0.0060	-0.0311	-0.0202
5816.0000	-0.0106	0.0102	-0.0045	-0.0129	0.0128	0.0061	-0.0047	-0.0076	-0.0241	-0.0038	0.0217	-0.1193	0.0184	-0.0075	-0.0266	-0.0185
5824.0000	-0.0072	0.0041	0.0005	-0.0076	0.0167	0.0083	-0.0035	-0.0058	-0.0286	-0.0008	0.0252	-0.1215	0.0375	-0.0151	-0.0305	-0.0188
5832.0000	-0.0036	-0.0088	0.0053	-0.0042	0.0214	0.0119	-0.0045	-0.0042	-0.0210	0.0050	0.0299	-0.1244	0.0414	-0.0198	-0.0347	-0.0156
5840.0000	-0.0039	-0.0227	0.0042	-0.0008	0.0201	0.0074	-0.0110	-0.0099	-0.0015	0.0034	0.0370	-0.1271	0.0226	-0.0211	-0.0369	-0.0140
5848.0000	-0.0086	-0.0309	-0.0007	-0.0016	0.0185	-0.0036	-0.0182	-0.0162	0.0116	-0.0080	0.0403	-0.1340	0.0044	-0.0231	-0.0422	-0.0181
5856.0000	-0.0161	-0.0279	-0.0069	-0.0120	0.0224	-0.0119	-0.0188	-0.0180	0.0141	-0.0201	0.0468	-0.1389	0.0050	-0.0267	-0.0440	-0.0219
5864.0000	-0.0213	-0.0173	-0.0093	-0.0213	0.0243	-0.0146	-0.0162	-0.0209	0.0174	-0.0291	0.0639	-0.1382	0.0141	-0.0339	-0.0359	-0.0253
5872.0000	-0.0179	-0.0090	-0.0019	-0.0162	0.0188	-0.0098	-0.0137	-0.0245	0.0242	-0.0388	0.0816	-0.1463	0.0179	-0.0444	-0.0300	-0.0358
5880.0000	-0.0097	-0.0093	0.0094	-0.0054	0.0148	0.0031	-0.0049	-0.0197	0.0282	-0.0474	0.0912	-0.1736	0.0190	-0.0491	-0.0382	-0.0496
5888.0000	-0.0072	-0.0175	0.0106	-0.0052	0.0170	0.0119	0.0098	-0.0097	0.0310	-0.0483	0.1014	-0.2045	0.0198	-0.0427	-0.0495	-0.0539
5896.0000	-0.0118	-0.0285	0.0006	-0.0122	0.0153	0.0052	0.0149	-0.0072	0.0360	-0.0409	0.1192	-0.2159	0.0176	-0.0344	-0.0476	-0.0462
5904.0000	-0.0142	-0.0345	-0.0070	-0.0118	0.0049	-0.0056	0.0042	-0.0122	0.0352	-0.0295	0.1366	-0.2027	0.0174	-0.0316	-0.0322	-0.0329
5912.0000	-0.0112	-0.0328	-0.0058	-0.0045	-0.0042	-0.0039	-0.0073	-0.0152	0.0213	-0.0170	0.1437	-0.1767	0.0232	-0.0288	-0.0136	-0.0157
5920.0000	-0.0080	-0.0270	-0.0022	-0.0012	-0.0043	0.0069	-0.0070	-0.0148	0.0031	-0.0058	0.1379	-0.1520	0.0218	-0.0209	-0.0000	0.0029
5928.0000	-0.0059	-0.0184	0.0005	-0.0021	-0.0003	0.0175	0.0006	-0.0139	-0.0071	0.0018	0.1187	-0.1371	0.0040	-0.0121	0.0042	0.0148
5936.0000	0.0004	-0.0042	0.0055	0.0016	0.0020	0.0310	0.0094	-0.0084	-0.0090	0.0058	0.0878	-0.1315	-0.0108	-0.0044	-0.0019	0.0181
5944.0000	0.0098	0.0100	0.0118	0.0111	0.0026	0.0463	0.0180	0.0014	-0.0089	0.0067	0.0527	-0.1296	-0.0023	0.0037	-0.0152	0.0199
5952.0000	0.0119	0.0102	0.0125	0.0155	0.0015	0.0495	0.0216	0.0060	-0.0108	0.0043	0.0230	-0.1278	0.0153	0.0082	-0.0288	0.0248
5960.0000	0.0029	-0.0075	0.0061	0.0080	-0.0023	0.0381	0.0166	0.0018	-0.0177	-0.0003	0.0064	-0.1243	0.0161	0.0049	-0.0335	0.0306
5968.0000	-0.0071	-0.0294	-0.0009	-0.0034	-0.0085	0.0288	0.0081	-0.0035	-0.0287	-0.0062	0.0018	-0.1186	0.0015	-0.0008	-0.0279	0.0339
5976.0000	-0.0071	-0.0382	-0.0021	-0.0060	-0.0149	0.0314	0.0027	-0.0051	-0.0360	-0.0143	-0.0042	-0.1161	-0.0094	-0.0017	-0.0264	0.0306
5984.0000	-0.0009	-0.0279	0.0008	-0.0002	-0.0163	0.0382	0.0031	-0.0049	-0.0346	-0.0214	-0.0219	-0.1199	-0.0108	0.0021	-0.0403	0.0217
5992.0000	-0.0003	-0.0075	0.0007	0.0022	-0.0094	0.0409	0.0110	-0.0032	-0.0303	-0.0212	-0.0392	-0.1199	-0.0077	0.0089	-0.0549	0.0177
6000.0000	-0.0065	0.0057	-0.0036	-0.0008	-0.0010	0.0394	0.0215	-0.0008	-0.0292	-0.0162	-0.0406	-0.1061	-0.0020	0.0168	-0.0504	0.0242
6008.0000	-0.0084	-0.0004	-0.0055	0.0009	-0.0012	0.0359	0.0226	-0.0021	-0.0306	-0.0149	-0.0370	-0.0895	0.0027	0.0203	-0.0381	0.0294
6016.0000	-0.0032	-0.0206	-0.0012	0.0087	-0.0058	0.0328	0.0156	-0.0065	-0.0339	-0.0168	-0.0476	-0.0868	0.0006	0.0159	-0.0423	0.0234
6024.0000	-0.0012	-0.0406	0.0026	0.0118	-0.0043	0.0313	0.0159	-0.0069	-0.0400	-0.0140	-0.0640	-0.0912	-0.0049	0.0081	-0.0573	0.0173
6032.0000	-0.0061	-0.0512	-0.0005	0.0088	-0.0011	0.0303	0.0238	-0.0033	-0.0436	-0.0088	-0.0659	-0.0858	-0.0043	0.0011	-0.0605	0.0225
6040.0000	-0.0065	-0.0467	-0.0050	0.0111	-0.0061	0.0311	0.0222	-0.0024	-0.0388	-0.0087	-0.0579	-0.0747	0.0023	-0.0046	-0.0544	0.0303
6048.0000	0.0018	-0.0214	-0.0050	0.0185	-0.0109	0.0373	0.0104	-0.0036	-0.0305	-0.0095	-0.0569	-0.0714	0.0061	-0.0047	-0.0569	0.0300
6056.0000	0.0056	0.0174	-0.0041	0.0182	-0.0037	0.0421	0.0052	-0.0019	-0.0261	-0.0014	-0.0598	-0.0691	0.0023	0.0043	-0.0628	0.0281
6064.0000	-0.0011	0.0458	-0.0060	0.0102	0.0039	0.0345	0.0068	0.0001	-0.0244	0.0106	-0.0546	-0.0513	-0.0072	0.0144	-0.0557	0.0313
6072.0000	-0.0053	0.0479	-0.0051	0.0104	-0.0033	0.0222	0.0029	-0.0023	-0.0221	0.0153	-0.0466	-0.0216	-0.0156	0.0181	-0.0409	0.0331
6080.0000	-0.0004	0.0318	0.0007	0.0222	-0.0163	0.0238	-0.0030	-0.0043	-0.0225	0.0168	-0.0474	0.0043	-0.0136	0.0229	-0.0346	0.0309
6088.0000	0.0012	0.0130	0.0034	0.0301	-0.0199	0.0361	-0.0005	-0.0017	-0.0255	0.0260	-0.0532	0.0249	-0.0022	0.0367	-0.0338	0.0345
6096.0000	-0.0057	-0.0014	0.0004	0.0272	-0.0196	0.0396	0.0042	0.0003	-0.0248	0.0391	-0.0548	0.0507	0.0026	0.0499	-0.0255	0.0463
6104.0000	-0.0069	-0.0065	0.0011	0.0256	-0.0235	0.0339	0.0043	-0.0009	-0.0205	0.0427	-0.0558	0.0805	-0.0073	0.0497	-0.0132	0.0541
6112.0000	0.0030	-0.0001	0.0088	0.0318	-0.0237	0.0349	0.0082	0.0007	-0.0181	0.0343	-0.0661	0.1000	-0.0153	0.0407	-0.0112	0.0520
6120.0000	0.0073	0.0072	0.0130	0.0365	-0.0161	0.0410	0.0174	0.0056	-0.0166	0.0239	-0.0835	0.1005	-0.0070	0.0348	-0.0210	0.0477
6128.0000	-0.0023	0.0035	0.0082	0.0335	-0.0117	0.0390	0.0181	0.0071	-0.0112	0.0178	-0.0952	0.0884	0.0042	0.0325	-0.0306	0.0470
6136.0000	-0.0108	-0.0060	0.0031	0.0307	-0.0141	0.0342	0.0092	0.0071	-0.0050	0.0140	-0.0946	0.0742	-0.0007	0.0283	-0.0331	0.0458
6144.0000	-0.0082	-0.0107	0.0031	0.0337	-0.0137	0.0394	0.0048	0.0126	-0.0028	0.0111	-0.0881	0.0601	-0.0146	0.0228	-0.0352	0.0402
6152.0000	-0.0044	-0.0150	0.0024	0.0342	-0.0078	0.0467	0.0068	0.0182	-0.0012	0.0102	-0.0854	0.0436	-0.0181	0.0213	-0.0445	0.0337
6160.0000	-0.0068	-0.0259	-0.0007	0.0264	-0.0032	0.0427	0.0059	0.0149	0.0018	0.0097	-0.0862	0.0260	-0.0094	0.0248	-0.0571	0.0295
6168.0000	-0.0074	-0.0316	0.0020	0.0198	0.0010	0.0370	0.0033	0.0106	0.0007	0.0066	-0.0848	0.0112	-0.0027	0.0276	-0.0636	0.0262
6176.0000	-0.0020	-0.0180	0.0112	0.0234	0.0084	0.0433	0.0043	0.0172	-0.0048	0.0016	-0.0817	-0.0009	-0.0048	0.0226	-0.0650	0.0208
6184.0000	0.0005	0.0054	0.0146	0.0290	0.0139	0.0515	0.0028	0.0248	-0.0071	-0.0022	-0.0809	-0.0139	-0.0088	0.0118	-0.0704	0.0132
6192.0000	-0.0042	0.0164	0.0059	0.0254	0.0132	0.0461	-0.0039	0.0166	-0.0049	-0.0055	-0.0796	-0.0285	-0.0065	0.0053	-0.0803	0.0045
6200.0000	-0.0081	0.0079	-0.0051	0.0182	0.0118	0.0370	-0.0049	0.0014	-0.0051	-0.0114	-0.0725	-0.0423	-0.0010	0.0069	-0.0860	-0.0036
6208.0000	-0.0051	-0.0107	-0.0075	0.0198	0.0139	0.0418	0.0063	0.0006	-0.0062	-0.0183	-0.0618	-0.0529	-0.0026	0.0081	-0.0844	-0.0080
6216.0000	-0.0002	-0.0280	-0.0036	0.0262	0.0171	0.0525	0.0201	0.0118	-0.0005	-0.0214	-0.0532	-0.0594	-0.0109	0.0034	-0.0823	-0.0059
6224.0000	-0.0006	-0.0354	-0.0033	0.0247	0.0197	0.0493	0.0232	0.0146	0.0096	-0.0195	-0.0457	-0.0606	-0.0137	-0.0018	-0.0817	0.0002
6232.0000	-0.0063	-0.0281	-0.0098	0.0174	0.0207	0.0343	0.0118	0.0055	0.0141	-0.0156	-0.0356	-0.0570	-0.0103	-0.0040	-0.0769	0.0038
6240.0000	-0.0107	-0.0119	-0.0163	0.0164	0.0161	0.0274	-0.0046	-0.0015	0.0122	-0.0135	-0.0266	-0.0537	-0.0149	-0.0072	-0.0676	0.0008
6248.0000	-0.0086	-0.0006	-0.0162	0.0186	0.0084	0.0335	-0.0088	-0.0014	0.0125	-0.0150	-0.0278	-0.0582	-0.0248	-0.0111	-0.0648	-0.0066
6256.0000	-0.0038	-0.0028	-0.0140	0.0082	0.0074	0.0387	0.0018	-0.0025	0.0179	-0.0194	-0.0385	-0.0718	-0.0191	-0.0088	-0.0733	-0.0134
6264.0000	-0.0042	-0.0177	-0.0194	-0.0147	0.0119	0.0337	0.0072	-0.0077	0.0218	-0.0226	-0.0444	-0.0835	-0.0025	-0.0005	-0.0804	-0.0146
6272.0000	-0.0082	-0.0393	-0.0286	-0.0294	0.0102	0.0244	-0.0047	-0.0112	0.0194	-0.0220	-0.0341	-0.0823	-0.0058	0.0025	-0.0724	-0.0097
6280.0000	-0.0065	-0.0577	-0.0254	-0.0243	0.0025	0.0191	-0.0161	-0.0100	0.0137	-0.0197	-0.0181	-0.0743	-0.0269	-0.0071	-0.0576	-0.0056
6288.0000	0.0009	-0.0596	-0.0086	-0.0140	0.0001	0.0189	-0.0099	-0.0059	0.0115	-0.0177	-0.0170	-0.0757	-0.0275	-0.0230	-0.0560	-0.0099
6296.0000	0.0032	-0.0380	0.0010	-0.0146	0.0042	0.0212	0.0027	0.0010	0.0149	-0.0148	-0.0311	-0.0879	-0.0023	-0.0324	-0.0689	-0.0190
6304.0000	0.0003	-0.0010	-0.0058	-0.0198	0.0081	0.0222	0.0072	0.0114	0.0206	-0.0120	-0.0404	-0.0960	0.0106	-0.0304	-0.0791	-0.0218
6312.0000	0.0017	0.0310	-0.0125	-0.0176	0.0130	0.0182	0.0062	0.0207	0.0263	-0.0110	-0.0352	-0.0934	-0.0002	-0.0239	-0.0778	-0.0160
6320.0000	0.0035	0.0378	-0.0117	-0.0150	0.0185	0.0078	0.0003	0.0193	0.0309	-0.0078	-0.0244	-0.0843	-0.0075	-0.0210	-0.0696	-0.0081
6328.0000	-0.0077	0.0142	-0.0194	-0.0252	0.0121	-0.0062	-0.0170	0.0036	0.0278	-0.0009	-0.0119	-0.0676	-0.0056	-0.0219	-0.0539	-0.0011
6336.0000	-0.0244	-0.0203	-0.0380	-0.0390	-0.0083	-0.0185	-0.0344	-0.0150	0.0123	-0.0003	0.0040	-0.0434	-0.0119	-0.0243	-0.0296	0.0044
6344.0000	-0.0237	-0.0340	-0.0420	-0.0360	-0.0217	-0.0241	-0.0309	-0.0188	-0.0034	-0.0122	0.0119	-0.0274	-0.0172	-0.0306	-0.0121	0.0030
6352.0000	-0.0070	-0.0143	-0.0225	-0.0201	-0.0146	-0.0211	-0.0113	-0.0059	-0.0011	-0.0232	-0.0014	-0.0311	-0.0020	-0.0389	-0.0174	-0.0057
6360.0000	0.0012	0.0208	-0.0063	-0.0130	-0.0013	-0.0139	0.0002	0.0066	0.0148	-0.0196	-0.0242	-0.0404	0.0173	-0.0394	-0.0345	-0.0096
6368.0000	-0.0066	0.0443	-0.0112	-0.0197	0.0025	-0.0113	-0.0027	0.0056	0.0203	-0.0102	-0.0355	-0.0391	0.0181	-0.0314	-0.0419	-0.0023
6376.0000	-0.0144	0.0455	-0.0212	-0.0268	0.0005	-0.0165	-0.0092	-0.0032	0.0074	-0.0097	-0.0371	-0.0352	0.0148	-0.0288	-0.0397	0.0069
6384.0000	-0.0164	0.0297	-0.0217	-0.0307	-0.0008	-0.0257	-0.0157	-0.0106	-0.0069	-0.0150	-0.0403	-0.0383	0.0213	-0.0394	-0.0386	0.0097
6392.0000	-0.0193	0.0084	-0.0187	-0.0366	-0.0052	-0.0328	-0.0224	-0.0161	-0.0091	-0.0169	-0.0399	-0.0387	0.0185	-0.0519	-0.0350	0.0089
6400.0000	-0.0171	-0.0033	-0.0131	-0.0382	-0.0106	-0.0326	-0.0215	-0.0177	-0.0022	-0.0173	-0.0316	-0.0326	0.0007	-0.0551	-0.0267	0.0050
6408.0000	-0.0017	0.0065	0.0012	-0.0286	-0.0061	-0.0245	-0.0104	-0.0091	0.0084	-0.0181	-0.0302	-0.0361	-0.0028	-0.0516	-0.0286	-0.0055
6416.0000	0.0113	0.0330	0.0117	-0.0209	0.0077	-0.0174	-0.0002	0.0035	0.0186	-0.0146	-0.0422	-0.0538	0.0158	-0.0462	-0.0463	-0.0164
6424.0000	0.0028	0.0554	0.0018	-0.0289	0.0155	-0.0228	-0.0004	0.0041	0.0219	-0.0072	-0.0474	-0.0640	0.0260	-0.0383	-0.0582	-0.0173
6432.0000	-0.0133	0.0569	-0.0154	-0.0412	0.0114	-0.0362	-0.0082	-0.0080	0.0180	-0.0032	-0.0303	-0.0533	0.0159	-0.0301	-0.0474	-0.0114
6440.0000	-0.0128	0.0380	-0.0160	-0.0406	0.0052	-0.0409	-0.0151	-0.0166	0.0173	-0.0018	-0.0035	-0.0340	0.0062	-0.0258	-0.0257	-0.0070
6448.0000	-0.0022	0.0119	-0.0065	-0.0329	0.0043	-0.0339	-0.0161	-0.0144	0.0225	0.0020	0.0168	-0.0180	0.0034	-0.0245	-0.0094	-0.0017
6456.0000	-0.0024	-0.0064	-0.0070	-0.0323	0.0043	-0.0312	-0.0141	-0.0099	0.0220	0.0056	0.0314	-0.0026	-0.0028	-0.0224	0.0030	0.0072
6464.0000	-0.0103	-0.0068	-0.0138	-0.0353	0.0023	-0.0413	-0.0171	-0.0095	0.0119	0.0052	0.0426	0.0128	-0.0056	-0.0204	0.0157	0.0105
6472.0000	-0.0110	0.0102	-0.0134	-0.0331	0.0032	-0.0533	-0.0267	-0.0112	0.0057	0.0062	0.0471	0.0245	0.0039	-0.0200	0.0246	0.0041
6480.0000	-0.0084	0.0304	-0.0109	-0.0315	0.0078	-0.0569	-0.0341	-0.0134	0.0109	0.0127	0.0496	0.0380	0.0099	-0.0187	0.0313	0.0015
6488.0000	-0.0132	0.0360	-0.0154	-0.0375	0.0067	-0.0539	-0.0342	-0.0164	0.0163	0.0190	0.0599	0.0608	-0.0011	-0.0147	0.0459	0.0123
6496.0000	-0.0178	0.0221	-0.0167	-0.0429	-0.0049	-0.0487	-0.0317	-0.0185	0.0107	0.0183	0.0729	0.0828	-0.0146	-0.0112	0.0664	0.0238
6504.0000	-0.0110	-0.0000	-0.0053	-0.0387	-0.0167	-0.0433	-0.0277	-0.0187	0.0009	0.0084	0.0719	0.0833	-0.0136	-0.0146	0.0737	0.0190
6512.0000	-0.0014	-0.0181	0.0057	-0.0318	-0.0177	-0.0423	-0.0193	-0.0191	-0.0008	-0.0100	0.0534	0.0557	-0.0037	-0.0275	0.0576	0.0003
6520.0000	-0.0034	-0.0300	0.0012	-0.0336	-0.0106	-0.0475	-0.0127	-0.0214	0.0052	-0.0296	0.0330	0.0141	0.0019	-0.0416	0.0326	-0.0168
6528.0000	-0.0125	-0.0383	-0.0108	-0.0420	-0.0058	-0.0507	-0.0150	-0.0248	0.0078	-0.0395	0.0228	-0.0254	-0.0023	-0.0438	0.0183	-0.0247
6536.0000	-0.0147	-0.0405	-0.0147	-0.0472	-0.0059	-0.0453	-0.0182	-0.0276	0.0024	-0.0407	0.0167	-0.0619	-0.0132	-0.0345	0.0128	-0.0315
6544.0000	-0.0090	-0.0372	-0.0122	-0.0483	-0.0077	-0.0380	-0.0160	-0.0290	-0.0037	-0.0438	0.0047	-0.1023	-0.0182	-0.0283	0.0017	-0.0453
6552.0000	-0.0055	-0.0386	-0.0149	-0.0514	-0.0105	-0.0380	-0.0179	-0.0307	-0.0025	-0.0499	-0.0062	-0.1427	-0.0102	-0.0315	-0.0131	-0.0603
6560.0000	-0.0063	-0.0502	-0.0199	-0.0545	-0.0139	-0.0415	-0.0266	-0.0337	0.0027	-0.0506	-0.0027	-0.1700	-0.0030	-0.0369	-0.0165	-0.0644
6568.0000	-0.0025	-0.0604	-0.0141	-0.0480	-0.0134	-0.0390	-0.0263	-0.0322	0.0060	-0.0460	0.0093	-0.1831	-0.0096	-0.0411	-0.0107	-0.0597
6576.0000	0.0071	-0.0572	0.0013	-0.0324	-0.0087	-0.0313	-0.0159	-0.0218	0.0098	-0.0407	0.0115	-0.1937	-0.0167	-0.0459	-0.0147	-0.0581
6584.0000	0.0102	-0.0471	0.0083	-0.0231	-0.0075	-0.0270	-0.0182	-0.0131	0.0164	-0.0302	0.0057	-0.2029	-0.0098	-0.0437	-0.0283	-0.0593
6592.0000	-0.0008	-0.0395	-0.0001	-0.0273	-0.0146	-0.0287	-0.0364	-0.0169	0.0162	-0.0122	0.0118	-0.1964	-0.0030	-0.0265	-0.0283	-0.0513
6600.0000	-0.0170	-0.0281	-0.0110	-0.0342	-0.0237	-0.0314	-0.0449	-0.0219	0.0020	0.0030	0.0336	-0.1687	-0.0117	-0.0043	-0.0057	-0.0333
6608.0000	-0.0265	-0.0049	-0.0144	-0.0344	-0.0278	-0.0315	-0.0358	-0.0128	-0.0153	0.0092	0.0548	-0.1307	-0.0249	0.0100	0.0227	-0.0175
6616.0000	-0.0271	0.0191	-0.0141	-0.0323	-0.0278	-0.0280	-0.0298	-0.0007	-0.0213	0.0124	0.0675	-0.0941	-0.0293	0.0182	0.0437	-0.0100
6624.0000	-0.0212	0.0265	-0.0117	-0.0302	-0.0256	-0.0209	-0.0322	-0.0029	-0.0163	0.0134	0.0749	-0.0665	-0.0253	0.0214	0.0569	-0.0080
6632.0000	-0.0125	0.0144	-0.0046	-0.0236	-0.0190	-0.0148	-0.0282	-0.0094	-0.0088	0.0062	0.0742	-0.0549	-0.0142	0.0144	0.0601	-0.0111
6640.0000	-0.0105	-0.0074	-0.0002	-0.0162	-0.0105	-0.0181	-0.0211	-0.0057	-0.0035	-0.0017	0.0668	-0.0539	-0.0015	0.0076	0.0552	-0.0171
6648.0000	-0.0189	-0.0266	-0.0063	-0.0165	-0.0098	-0.0285	-0.0250	-0.0018	-0.0045	0.0025	0.0687	-0.0429	-0.0045	0.0189	0.0594	-0.0179
6656.0000	-0.0233	-0.0299	-0.0116	-0.0178	-0.0185	-0.0304	-0.0314	-0.0072	-0.0129	0.0135	0.0859	-0.0131	-0.0209	0.0378	0.0807	-0.0117
6664.0000	-0.0121	-0.0117	-0.0061	-0.0099	-0.0237	-0.0192	-0.0253	-0.0093	-0.0194	0.0192	0.1002	0.0214	-0.0228	0.0398	0.1025	-0.0059
6672.0000	-0.0003	0.0169	-0.0030	-0.0010	-0.0176	-0.0110	-0.0175	-0.0030	-0.0159	0.0240	0.1014	0.0518	-0.0070	0.0326	0.1130	-0.0024
6680.0000	-0.0032	0.0409	-0.0114	-0.0021	-0.0110	-0.0152	-0.0200	-0.0030	-0.0108	0.0342	0.1027	0.0843	-0.0026	0.0415	0.1232	0.0038
6688.0000	-0.0077	0.0573	-0.0132	-0.0032	-0.0142	-0.0180	-0.0197	-0.0090	-0.0122	0.0399	0.1092	0.1152	-0.0111	0.0592	0.1372	0.0108
6696.0000	-0.0004	0.0653	0.0008	0.0054	-0.0203	-0.0098	-0.0103	-0.0046	-0.0119	0.0344	0.1071	0.1301	-0.0054	0.0608	0.1418	0.0129
6704.0000	0.0045	0.0598	0.0078	0.0102	-0.0198	-0.0037	-0.0119	0.0044	-0.0037	0.0297	0.0966	0.1333	0.0069	0.0505	0.1374	0.0125
6712.0000	-0.0038	0.0467	-0.0023	0.0015	-0.0171	-0.0071	-0.0276	-0.0003	-0.0001	0.0342	0.0938	0.1428	-0.0035	0.0489	0.1404	0.0131
6720.0000	-0.0096	0.0452	-0.0062	-0.0062	-0.0173	-0.0070	-0.0299	-0.0083	-0.0084	0.0398	0.0996	0.1605	-0.0228	0.0560	0.1516	0.0121
6728.0000	-0.0049	0.0597	0.0042	-0.0037	-0.0143	-0.0003	-0.0130	-0.0007	-0.0160	0.0416	0.1041	0.1787	-0.0191	0.0600	0.1598	0.0122
6736.0000	-0.0053	0.0723	0.0051	-0.0034	-0.0068	-0.0017	-0.0057	0.0087	-0.0152	0.0444	0.1124	0.2020	-0.0064	0.0606	0.1709	0.0220
6744.0000	-0.0123	0.0725	-0.0077	-0.0078	-0.0050	-0.0086	-0.0160	0.0020	-0.0170	0.0467	0.1265	0.2329	-0.0112	0.0591	0.1918	0.0357
6752.0000	-0.0088	0.0697	-0.0095	-0.0030	-0.0093	-0.0012	-0.0200	-0.0053	-0.0252	0.0426	0.1279	0.2563	-0.0190	0.0547	0.2055	0.0368
6760.0000	-0.0001	0.0708	0.0015	0.0077	-0.0084	0.0150	-0.0147	0.0019	-0.0273	0.0400	0.1126	0.2688	-0.0137	0.0555	0.2023	0.0277
6768.0000	-0.0056	0.0730	0.0029	0.0059	-0.0043	0.0131	-0.0194	0.0076	-0.0209	0.0486	0.1079	0.2921	-0.0151	0.0661	0.2057	0.0258
6776.0000	-0.0129	0.0800	-0.0014	-0.0029	-0.0095	-0.0038	-0.0244	0.0032	-0.0183	0.0598	0.1220	0.3331	-0.0287	0.0715	0.2292	0.0310
6784.0000	0.0010	0.0975	0.0092	0.0036	-0.0164	-0.0049	-0.0042	0.0090	-0.0210	0.0606	0.1220	0.3645	-0.0257	0.0616	0.2429	0.0279
6792.0000	0.0208	0.1149	0.0231	0.0212	-0.0065	0.0135	0.0247	0.0289	-0.0176	0.0560	0.0919	0.3693	-0.0017	0.0518	0.2253	0.0196
6800.0000	0.0190	0.1138	0.0175	0.0267	0.0122	0.0233	0.0251	0.0355	-0.0070	0.0574	0.0633	0.3682	0.0116	0.0567	0.2037	0.0226
6808.0000	0.0086	0.0931	0.0071	0.0219	0.0154	0.0150	0.0058	0.0203	-0.0006	0.0619	0.0595	0.3794	0.0051	0.0663	0.2057	0.0348
6816.0000	0.0148	0.0687	0.0172	0.0268	0.0042	0.0079	0.0030	0.0094	-0.0022	0.0601	0.0578	0.3881	-0.0005	0.0683	0.2121	0.0372
6824.0000	0.0270	0.0549	0.0345	0.0398	-0.0000	0.0128	0.0146	0.0153	-0.0062	0.0528	0.0343	0.3764	0.0022	0.0652	0.1941	0.0261
6832.0000	0.0245	0.0561	0.0324	0.0428	0.0047	0.0193	0.0130	0.0215	-0.0093	0.0477	0.0023	0.3550	0.0067	0.0584	0.1618	0.0166
6840.0000	0.0151	0.0676	0.0173	0.0343	0.0046	0.0197	0.0017	0.0184	-0.0098	0.0475	-0.0137	0.3461	0.0110	0.0464	0.1452	0.0183
6848.0000	0.0128	0.0770	0.0108	0.0285	0.0008	0.0177	0.0018	0.0162	-0.0064	0.0496	-0.0121	0.3541	0.0061	0.0390	0.1513	0.0268
6856.0000	0.0132	0.0751	0.0148	0.0303	0.0048	0.0164	0.0088	0.0196	-0.0031	0.0502	-0.0058	0.3655	-0.0159	0.0442	0.1639	0.0341
6864.0000	0.0137	0.0666	0.0198	0.0345	0.0146	0.0165	0.0083	0.0207	-0.0043	0.0464	-0.0054	0.3679	-0.0314	0.0496	0.1674	0.0350
6872.0000	0.0212	0.0605	0.0236	0.0394	0.0208	0.0213	0.0064	0.0172	-0.0047	0.0402	-0.0148	0.3607	-0.0145	0.0435	0.1572	0.0307
6880.0000	0.0318	0.0561	0.0254	0.0460	0.0220	0.0315	0.0105	0.0156	0.0019	0.0380	-0.0288	0.3535	0.0107	0.0380	0.1406	0.0293
6888.0000	0.0343	0.0491	0.0227	0.0518	0.0212	0.0393	0.0114	0.0182	0.0095	0.0412	-0.0367	0.3536	0.0070	0.0456	0.1303	0.0378
6896.0000	0.0314	0.0435	0.0198	0.0555	0.0195	0.0375	0.0080	0.0209	0.0090	0.0430	-0.0378	0.3567	-0.0107	0.0546	0.1292	0.0505
6904.0000	0.0319	0.0457	0.0220	0.0593	0.0202	0.0308	0.0130	0.0221	0.0050	0.0390	-0.0427	0.3543	-0.0062	0.0525	0.1263	0.0568
6912.0000	0.0337	0.0516	0.0247	0.0638	0.0235	0.0304	0.0228	0.0229	0.0066	0.0345	-0.0556	0.3465	0.0115	0.0481	0.1154	0.0562
6920.0000	0.0325	0.0480	0.0221	0.0647	0.0218	0.0365	0.0181	0.0206	0.0102	0.0335	-0.0680	0.3388	0.0106	0.0492	0.1044	0.0543
6928.0000	0.0314	0.0267	0.0169	0.0597	0.0115	0.0382	0.0024	0.0125	0.0071	0.0295	-0.0750	0.3284	-0.0066	0.0440	0.0995	0.0492
6936.0000	0.0317	-0.0012	0.0145	0.0546	0.0031	0.0340	-0.0022	0.0053	0.0004	0.0167	-0.0842	0.3068	-0.0149	0.0253	0.0919	0.0358
6944.0000	0.0314	-0.0122	0.0169	0.0579	0.0058	0.0360	0.0055	0.0099	0.0002	0.0022	-0.1007	0.2753	-0.0058	0.0086	0.0725	0.0192
6952.0000	0.0332	0.0048	0.0237	0.0682	0.0139	0.0459	0.0069	0.0243	0.0067	-0.0018	-0.1172	0.2466	0.0116	0.0091	0.0483	0.0103
6960.0000	0.0372	0.0336	0.0296	0.0726	0.0173	0.0454	-0.0012	0.0341	0.0114	0.0042	-0.1233	0.2296	0.0257	0.0191	0.0330	0.0123
6968.0000	0.0349	0.0514	0.0255	0.0637	0.0139	0.0256	-0.0067	0.0323	0.0107	0.0094	-0.1179	0.2222	0.0285	0.0227	0.0308	0.0201
6976.0000	0.0262	0.0540	0.0138	0.0508	0.0063	0.0053	-0.0083	0.0258	0.0090	0.0087	-0.1068	0.2201	0.0228	0.0180	0.0351	0.0291
6984.0000	0.0237	0.0494	0.0094	0.0479	0.0001	0.0042	-0.0112	0.0206	0.0094	0.0061	-0.0973	0.2181	0.0213	0.0131	0.0367	0.0339
6992.0000	0.0302	0.0392	0.0176	0.0544	0.0015	0.0165	-0.0101	0.0182	0.0112	0.0056	-0.0955	0.2081	0.0295	0.0119	0.0278	0.0294
7000.0000	0.0327	0.0231	0.0248	0.0580	0.0092	0.0249	-0.0009	0.0207	0.0133	0.0066	-0.1021	0.1879	0.0409	0.0144	0.0103	0.0205
7008.0000	0.0256	0.0100	0.0219	0.0530	0.0129	0.0213	0.0058	0.0246	0.0151	0.0074	-0.1074	0.1687	0.0491	0.0198	-0.0020	0.0204
7016.0000	0.0190	0.0088	0.0176	0.0459	0.0084	0.0092	0.0022	0.0190	0.0155	0.0068	-0.1031	0.1587	0.0494	0.0233	-0.0002	0.0301
7024.0000	0.0195	0.0158	0.0214	0.0433	0.0022	-0.0012	-0.0015	0.0058	0.0144	0.0036	-0.0971	0.1477	0.0386	0.0203	0.0040	0.0345
7032.0000	0.0225	0.0200	0.0280	0.0428	-0.0006	-0.0003	0.0046	0.0010	0.0132	-0.0007	-0.1027	0.1224	0.0263	0.0145	-0.0054	0.0273
7040.0000	0.0242	0.0126	0.0281	0.0395	-0.0028	0.0070	0.0124	0.0066	0.0121	-0.0046	-0.1172	0.0887	0.0277	0.0122	-0.0242	0.0185
7048.0000	0.0250	-0.0088	0.0232	0.0350	-0.0058	0.0077	0.0113	0.0066	0.0089	-0.0106	-0.1297	0.0557	0.0386	0.0095	-0.0409	0.0131
7056.0000	0.0243	-0.0350	0.0207	0.0339	-0.0074	0.0027	0.0052	-0.0015	0.0045	-0.0218	-0.1408	0.0164	0.0424	-0.0001	-0.0584	0.0031
7064.0000	0.0225	-0.0486	0.0217	0.0338	-0.0074	0.0044	0.0034	-0.0032	0.0031	-0.0341	-0.1551	-0.0334	0.0389	-0.0113	-0.0815	-0.0118
7072.0000	0.0226	-0.0418	0.0215	0.0297	-0.0065	0.0123	0.0061	0.0022	0.0066	-0.0416	-0.1649	-0.0787	0.0381	-0.0150	-0.1007	-0.0209
7080.0000	0.0246	-0.0264	0.0180	0.0242	-0.0025	0.0161	0.0072	0.0021	0.0127	-0.0451	-0.1657	-0.1104	0.0375	-0.0138	-0.1121	-0.0246
7088.0000	0.0246	-0.0200	0.0132	0.0225	0.0040	0.0154	0.0040	-0.0028	0.0177	-0.0490	-0.1677	-0.1415	0.0324	-0.0148	-0.1279	-0.0320
7096.0000	0.0205	-0.0284	0.0093	0.0204	0.0055	0.0124	-0.0012	-0.0054	0.0186	-0.0524	-0.1719	-0.1779	0.0286	-0.0176	-0.1489	-0.0409
7104.0000	0.0148	-0.0435	0.0065	0.0113	-0.0023	0.0009	-0.0044	-0.0108	0.0162	-0.0526	-0.1614	-0.2042	0.0270	-0.0203	-0.1569	-0.0429
7112.0000	0.0106	-0.0507	0.0034	0.0018	-0.0120	-0.0164	-0.0035	-0.0199	0.0152	-0.0514	-0.1340	-0.2159	0.0208	-0.0255	-0.1501	-0.0437
7120.0000	0.0088	-0.0418	-0.0014	0.0016	-0.0153	-0.0225	0.0006	-0.0198	0.0166	-0.0500	-0.1108	-0.2287	0.0149	-0.0327	-0.1472	-0.0508
7128.0000	0.0086	-0.0259	-0.0055	0.0073	-0.0142	-0.0133	0.0067	-0.0093	0.0136	-0.0471	-0.0997	-0.2461	0.0175	-0.0364	-0.1505	-0.0557
7136.0000	0.0116	-0.0199	-0.0026	0.0109	-0.0126	-0.0034	0.0160	-0.0040	0.0060	-0.0450	-0.0887	-0.2569	0.0208	-0.0363	-0.1485	-0.0514
7144.0000	0.0199	-0.0269	0.0074	0.0150	-0.0075	0.0024	0.0261	-0.0039	0.0085	-0.0462	-0.0795	-0.2654	0.0183	-0.0353	-0.1511	-0.0482
7152.0000	0.0289	-0.0357	0.0147	0.0214	0.0018	0.0117	0.0289	0.0038	0.0283	-0.0447	-0.0833	-0.2837	0.0213	-0.0318	-0.1727	-0.0522
7160.0000	0.0293	-0.0409	0.0123	0.0212	0.0071	0.0196	0.0227	0.0134	0.0463	-0.0344	-0.0875	-0.3011	0.0305	-0.0265	-0.1937	-0.0520
7168.0000	0.0211	-0.0433	0.0069	0.0117	0.0051	0.0169	0.0195	0.0120	0.0435	-0.0238	-0.0737	-0.3021	0.0276	-0.0261	-0.1905	-0.0429
7176.0000	0.0159	-0.0380	0.0081	0.0057	0.0058	0.0136	0.0271	0.0085	0.0309	-0.0245	-0.0554	-0.2976	0.0121	-0.0298	-0.1796	-0.0372
7184.0000	0.0195	-0.0228	0.0135	0.0108	0.0136	0.0213	0.0341	0.0146	0.0300	-0.0303	-0.0535	-0.3027	0.0064	-0.0271	-0.1852	-0.0380
7192.0000	0.0231	-0.0116	0.0156	0.0158	0.0164	0.0296	0.0272	0.0171	0.0379	-0.0275	-0.0579	-0.3071	0.0145	-0.0178	-0.1945	-0.0337
7200.0000	0.0186	-0.0177	0.0136	0.0104	0.0075	0.0268	0.0145	0.0053	0.0384	-0.0192	-0.0519	-0.3001	0.0183	-0.0143	-0.1900	-0.0244
7208.0000	0.0101	-0.0358	0.0098	0.0002	-0.0021	0.0204	0.0108	-0.0063	0.0309	-0.0189	-0.0433	-0.2917	0.0147	-0.0202	-0.1835	-0.0217
7216.0000	0.0043	-0.0531	0.0061	-0.0053	-0.0051	0.0178	0.0110	-0.0073	0.0257	-0.0264	-0.0399	-0.2884	0.0122	-0.0258	-0.1845	-0.0253
7224.0000	-0.0000	-0.0640	0.0070	-0.0054	-0.0103	0.0135	0.0022	-0.0081	0.0243	-0.0307	-0.0334	-0.2819	0.0070	-0.0260	-0.1806	-0.0252
7232.0000	-0.0047	-0.0625	0.0141	-0.0036	-0.0191	0.0081	-0.0066	-0.0106	0.0229	-0.0289	-0.0248	-0.2740	-0.0028	-0.0257	-0.1711	-0.0230
7240.0000	-0.0071	-0.0431	0.0193	-0.0026	-0.0195	0.0100	0.0041	-0.0033	0.0222	-0.0260	-0.0279	-0.2751	-0.0053	-0.0282	-0.1722	-0.0249
7248.0000	-0.0051	-0.0170	0.0152	-0.0052	-0.0116	0.0145	0.0261	0.0097	0.0236	-0.0233	-0.0386	-0.2800	0.0018	-0.0322	-0.1824	-0.0261
7256.0000	-0.0033	-0.0051	0.0068	-0.0134	-0.0111	0.0072	0.0282	0.0095	0.0270	-0.0207	-0.0402	-0.2757	0.0050	-0.0341	-0.1847	-0.0206
7264.0000	-0.0074	-0.0114	0.0019	-0.0251	-0.0200	-0.0094	0.0044	-0.0043	0.0319	-0.0206	-0.0323	-0.2652	0.0024	-0.0293	-0.1783	-0.0140
7272.0000	-0.0142	-0.0231	0.0022	-0.0340	-0.0239	-0.0185	-0.0128	-0.0132	0.0353	-0.0233	-0.0248	-0.2566	0.0014	-0.0201	-0.1721	-0.0122
7280.0000	-0.0136	-0.0302	0.0083	-0.0346	-0.0194	-0.0138	-0.0005	-0.0084	0.0344	-0.0244	-0.0186	-0.2500	-0.0013	-0.0182	-0.1671	-0.0137
7288.0000	-0.0046	-0.0284	0.0180	-0.0295	-0.0142	-0.0066	0.0193	0.0018	0.0348	-0.0209	-0.0148	-0.2471	-0.0059	-0.0271	-0.1667	-0.0153
7296.0000	-0.0000	-0.0135	0.0202	-0.0287	-0.0087	-0.0086	0.0135	0.0056	0.0408	-0.0139	-0.0146	-0.2481	-0.0011	-0.0332	-0.1732	-0.0141
7304.0000	-0.0059	0.0103	0.0101	-0.0342	-0.0030	-0.0164	-0.0114	-0.0015	0.0437	-0.0050	-0.0063	-0.2381	0.0082	-0.0278	-0.1707	-0.0060
7312.0000	-0.0116	0.0256	0.0004	-0.0377	-0.0052	-0.0189	-0.0237	-0.0114	0.0364	0.0028	0.0167	-0.2103	0.0027	-0.0204	-0.1491	0.0054
7320.0000	-0.0128	0.0209	-0.0013	-0.0394	-0.0136	-0.0168	-0.0169	-0.0132	0.0273	0.0053	0.0365	-0.1846	-0.0125	-0.0194	-0.1300	0.0097
7328.0000	-0.0193	0.0038	-0.0059	-0.0495	-0.0146	-0.0230	-0.0137	-0.0106	0.0224	0.0028	0.0427	-0.1729	-0.0176	-0.0207	-0.1268	0.0069
7336.0000	-0.0296	-0.0088	-0.0143	-0.0639	-0.0103	-0.0365	-0.0238	-0.0162	0.0132	-0.0009	0.0535	-0.1572	-0.0166	-0.0228	-0.1167	0.0063
7344.0000	-0.0276	-0.0077	-0.0108	-0.0661	-0.0165	-0.0392	-0.0314	-0.0255	-0.0008	-0.0047	0.0738	-0.1315	-0.0200	-0.0291	-0.0917	0.0068
7352.0000	-0.0164	0.0016	0.0018	-0.0589	-0.0276	-0.0269	-0.0261	-0.0217	-0.0056	-0.0098	0.0798	-0.1184	-0.0161	-0.0331	-0.0815	0.0026
7360.0000	-0.0169	0.0049	0.0018	-0.0605	-0.0234	-0.0192	-0.0175	-0.0071	-0.0009	-0.0135	0.0703	-0.1197	-0.0060	-0.0248	-0.0905	0.0016
7368.0000	-0.0265	-0.0043	-0.0086	-0.0683	-0.0088	-0.0236	-0.0159	-0.0006	-0.0020	-0.0128	0.0745	-0.1088	-0.0158	-0.0095	-0.0841	0.0121
7376.0000	-0.0253	-0.0176	-0.0084	-0.0661	-0.0056	-0.0255	-0.0210	-0.0066	-0.0095	-0.0112	0.0919	-0.0854	-0.0389	0.0001	-0.0597	0.0211
7384.0000	-0.0196	-0.0246	-0.0020	-0.0613	-0.0139	-0.0206	-0.0287	-0.0118	-0.0110	-0.0120	0.0936	-0.0762	-0.0335	0.0016	-0.0536	0.0156
