Time	FP1	FP2	C3	C4	P7	P8	O1	O2	F7	F8	F3	F4	T7	T8	P3	P4
0.0000	84.1943	3.2974	44.9644	58.1548	53.7823	62.2275	54.6236	38.8907	47.3036	77.3090	44.7890	55.7517	47.1148	54.8377	47.9535	42.5134
8.0000	99.5349	4.1815	53.0626	68.5263	63.6679	73.3262	64.4555	46.5609	43.9570	86.6749	34.8460	55.9543	47.1848	69.8398	42.9343	22.2264
16.0000	79.5398	5.6858	42.5238	53.9452	50.9349	56.6040	51.2171	42.9175	46.4209	92.1678	33.7967	59.3146	53.9299	75.3222	38.0301	22.0828
24.0000	1.4169	3.6665	0.8614	-0.6997	0.8732	-1.8361	0.1473	9.5310	19.1134	37.2872	11.2522	24.0552	26.5438	31.6554	7.4200	9.2945
32.0000	-77.9235	-1.7583	-41.6709	-55.2882	-50.0899	-58.2830	-51.4898	-32.5212	-36.1926	-57.2269	-36.3747	-42.7390	-33.3204	-37.4343	-41.2495	-34.5609
40.0000	-99.7388	-5.2827	-53.4377	-69.6727	-64.1851	-72.1643	-65.4764	-48.9186	-69.7134	-107.1899	-66.9735	-81.2017	-70.2971	-70.5566	-67.1526	-69.2210
48.0000	-84.5761	-4.7307	-45.2785	-59.0006	-54.4649	-61.1467	-55.4601	-41.9926	-62.8698	-94.2895	-61.3545	-72.6606	-63.1917	-60.5939	-60.2912	-65.2186
56.0000	-80.4793	-3.5831	-43.0441	-56.3844	-51.7785	-59.1117	-52.7863	-37.7828	-51.2954	-78.7305	-50.3600	-59.9600	-50.7210	-51.2056	-51.6214	-51.6908
64.0000	-87.3379	-4.0641	-46.7590	-61.0874	-56.1531	-64.0477	-57.1921	-41.5395	-56.1944	-87.4122	-54.6819	-66.0870	-56.2545	-57.6541	-55.9803	-55.7073
72.0000	-84.2440	-4.4376	-45.1204	-58.7082	-54.1671	-61.4150	-55.0229	-41.3350	-59.4285	-90.9330	-58.1619	-69.5565	-60.0953	-59.2943	-57.8878	-60.9045
80.0000	-77.7441	-3.8232	-41.6039	-54.1751	-49.9671	-56.9974	-50.6983	-37.4726	-52.7102	-80.8639	-52.0377	-61.9216	-53.0291	-52.7289	-52.2503	-54.2516
88.0000	-79.4535	-3.6131	-42.5206	-55.3999	-51.0323	-58.4749	-51.8222	-37.6062	-50.5264	-78.8818	-49.6086	-59.7621	-50.6983	-52.3021	-50.7990	-50.5623
96.0000	-80.5975	-3.9906	-43.1647	-56.0826	-51.7741	-58.9246	-52.6012	-38.9351	-54.3717	-84.0045	-53.0551	-63.8528	-54.7631	-55.6046	-53.4895	-54.7593
104.0000	-75.6503	-3.8497	-40.5056	-52.5856	-48.6179	-55.0674	-49.4513	-36.7599	-52.9193	-80.4132	-51.6131	-61.5158	-52.9453	-52.7670	-51.5403	-53.9312
112.0000	-73.5045	-3.4265	-39.3363	-51.1895	-47.2413	-53.5576	-48.2039	-34.9541	-48.8932	-74.4436	-47.3201	-56.5830	-48.2401	-49.1731	-48.0599	-48.6917
120.0000	-75.2309	-3.5126	-40.2778	-52.4377	-48.3532	-54.5716	-49.4756	-35.8266	-50.2277	-76.4122	-48.1056	-57.8211	-49.3996	-50.7646	-48.9618	-49.2673
128.0000	-73.1348	-3.6265	-39.1660	-50.9530	-47.0209	-52.6641	-48.1771	-35.3600	-51.5756	-77.3407	-49.3802	-58.8829	-50.7582	-51.0603	-49.5064	-51.3864
136.0000	-69.2948	-3.2981	-37.0909	-48.3289	-44.5485	-49.8835	-45.6906	-33.1805	-48.1430	-72.0280	-46.1992	-54.8466	-47.1315	-47.6896	-46.5033	-48.0155
144.0000	-69.4169	-3.1203	-37.1554	-48.4699	-44.5959	-50.1135	-45.7494	-32.8266	-46.1854	-70.0267	-44.3010	-52.9451	-45.2613	-47.0658	-45.1480	-45.4099
152.0000	-69.4854	-3.2738	-37.2087	-48.4598	-44.6099	-50.0731	-45.7128	-33.2454	-47.4588	-72.1156	-45.7272	-54.6239	-46.9988	-48.7061	-46.1753	-47.2163
160.0000	-66.1400	-3.1823	-35.4086	-46.0656	-42.4378	-47.6190	-43.4424	-31.7942	-46.0342	-69.7402	-44.7116	-53.0627	-45.7897	-47.1511	-44.8046	-46.5854
168.0000	-64.2226	-2.9178	-34.3672	-44.7491	-41.1864	-46.3859	-42.1751	-30.4368	-42.9140	-65.5578	-41.7219	-49.6500	-42.5719	-44.7859	-42.2750	-43.0002
176.0000	-64.7705	-2.9606	-34.6747	-45.1374	-41.5379	-46.7674	-42.5712	-30.7263	-43.1076	-66.0498	-41.6901	-49.8495	-42.7664	-45.3120	-42.3466	-42.7581
184.0000	-63.0742	-3.0507	-33.7786	-43.9284	-40.4684	-45.3630	-41.5067	-30.3069	-43.7808	-66.3079	-42.2827	-50.2831	-43.4229	-45.0991	-42.4621	-43.8771
192.0000	-60.0935	-2.8498	-32.1708	-41.8868	-38.5697	-43.1898	-39.6150	-28.7258	-41.4771	-62.4995	-40.0148	-47.4119	-40.8719	-42.3440	-40.2754	-41.5111
200.0000	-59.6721	-2.7154	-31.9443	-41.6663	-38.3071	-42.9231	-39.4112	-28.2695	-39.9810	-60.5498	-38.3560	-45.6711	-39.2112	-41.1140	-39.0016	-39.3562
208.0000	-59.3984	-2.8072	-31.8151	-41.5033	-38.1479	-42.6005	-39.2853	-28.4258	-40.8195	-61.5485	-39.0635	-46.4862	-40.1124	-41.4989	-39.4663	-40.3095
216.0000	-56.7624	-2.7407	-30.4058	-39.6957	-36.4742	-40.5949	-37.5898	-27.3264	-39.9167	-59.6973	-38.2846	-45.2738	-39.1942	-39.8692	-38.4197	-39.8465
224.0000	-54.9739	-2.5290	-29.4406	-38.5248	-35.3335	-39.3521	-36.4460	-26.1852	-37.5057	-56.3340	-35.9595	-42.5765	-36.6919	-37.6769	-36.4084	-37.1283
232.0000	-55.0262	-2.5229	-29.4780	-38.6105	-35.3729	-39.4105	-36.5016	-26.2232	-37.2288	-56.2110	-35.6292	-42.3574	-36.5078	-37.6752	-36.1769	-36.6242
240.0000	-53.5760	-2.5750	-28.7121	-37.6066	-34.4556	-38.3655	-35.5649	-25.8489	-37.4508	-56.1877	-35.9214	-42.5178	-36.8512	-37.3900	-36.1189	-37.3057
248.0000	-51.0698	-2.4264	-27.3653	-35.8999	-32.8602	-36.6879	-33.9485	-24.5851	-35.5412	-53.1703	-34.1353	-40.2601	-34.8594	-35.2305	-34.3661	-35.4817
256.0000	-50.4078	-2.3146	-27.0119	-35.4992	-32.4482	-36.3314	-33.5521	-24.0715	-34.0967	-51.3044	-32.6328	-38.6491	-33.3440	-34.0769	-33.1605	-33.5998
264.0000	-49.9969	-2.3741	-26.8040	-35.2267	-32.2069	-36.0363	-33.3082	-24.0712	-34.4772	-51.7661	-32.9570	-39.0288	-33.8139	-34.2254	-33.3215	-34.0825
272.0000	-47.8013	-2.3225	-25.6287	-33.6998	-30.8255	-34.5597	-31.8873	-23.1799	-33.6967	-50.2414	-32.2936	-38.0181	-33.0557	-32.9038	-32.4375	-33.6725
280.0000	-46.1320	-2.1489	-24.7291	-32.5791	-29.7782	-33.6181	-30.8222	-22.2092	-31.7001	-47.3950	-30.3535	-35.7473	-30.9757	-30.9849	-30.7264	-31.4373
288.0000	-45.9386	-2.1246	-24.6342	-32.4749	-29.6769	-33.6084	-30.7155	-22.1230	-31.2827	-46.9671	-29.8736	-35.3117	-30.6004	-30.7452	-30.3436	-30.7874
296.0000	-44.6796	-2.1518	-23.9691	-31.5830	-28.8893	-32.6617	-29.8727	-21.7401	-31.3213	-46.8140	-30.0066	-35.3325	-30.7807	-30.5433	-30.2046	-31.2014
304.0000	-42.5101	-2.0153	-22.8021	-30.0584	-27.5042	-31.1195	-28.4045	-20.6278	-29.6159	-44.3218	-28.5348	-33.4834	-29.1551	-29.0149	-28.7320	-29.7005
312.0000	-41.7437	-1.8914	-22.3906	-29.5113	-27.0076	-30.6143	-27.8412	-20.0784	-28.0980	-42.5633	-27.1487	-32.0008	-27.7578	-28.2732	-27.5761	-27.9817
320.0000	-41.2866	-1.9105	-22.1551	-29.1293	-26.7070	-30.2124	-27.4547	-19.9863	-28.0605	-42.7285	-27.2314	-32.1467	-27.9670	-28.7024	-27.5369	-28.1354
328.0000	-39.4188	-1.8574	-21.1537	-27.7358	-25.4944	-28.8139	-26.1188	-19.1916	-27.2003	-41.4504	-26.6326	-31.3082	-27.3128	-28.1241	-26.7403	-27.7094
336.0000	-37.8747	-1.7014	-20.3182	-26.5859	-24.4772	-27.7823	-24.9955	-18.2715	-25.2872	-38.9925	-24.9369	-29.3710	-25.5154	-27.0123	-25.2065	-25.7463
344.0000	-37.5590	-1.6628	-20.1543	-26.2834	-24.2466	-27.6101	-24.6829	-18.0847	-24.6174	-38.4118	-24.3413	-28.8384	-25.0162	-27.1407	-24.6955	-24.9558
352.0000	-36.4676	-1.6872	-19.5796	-25.4085	-23.5228	-26.7997	-23.8541	-17.7407	-24.4862	-38.2064	-24.3418	-28.7930	-25.0832	-27.2720	-24.4740	-25.1405
360.0000	-34.5731	-1.5933	-18.5613	-23.9820	-22.2790	-25.4679	-22.5020	-16.7945	-23.0301	-36.1136	-23.0789	-27.2551	-23.7200	-26.2047	-23.1897	-23.8352
368.0000	-33.7780	-1.5048	-18.1301	-23.3437	-21.7350	-24.9507	-21.8914	-16.2618	-21.6957	-34.4804	-21.7942	-25.9023	-22.4357	-25.5512	-22.0921	-22.2457
376.0000	-33.3248	-1.5362	-17.8922	-22.9380	-21.4162	-24.5899	-21.5178	-16.1424	-21.6590	-34.4781	-21.7353	-25.9124	-22.4916	-25.7317	-21.9466	-22.2130
384.0000	-31.7281	-1.5173	-17.0408	-21.7464	-20.3713	-23.4125	-20.4062	-15.4832	-21.0691	-33.4075	-21.2202	-25.2179	-21.9439	-25.0386	-21.2629	-21.8487
392.0000	-30.3173	-1.4017	-16.2847	-20.7271	-19.4453	-22.4549	-19.4469	-14.6837	-19.5881	-31.2727	-19.7679	-23.5610	-20.4035	-23.7868	-19.9395	-20.1970
400.0000	-29.9507	-1.3641	-16.0918	-20.4419	-19.1840	-22.2244	-19.1792	-14.4802	-19.1022	-30.6272	-19.1716	-23.0054	-19.8701	-23.4737	-19.4324	-19.4444
408.0000	-29.0150	-1.3818	-15.5924	-19.7174	-18.5474	-21.5546	-18.4817	-14.1830	-19.0440	-30.4151	-19.1378	-22.9402	-19.8793	-23.2770	-19.2243	-19.5823
416.0000	-27.3628	-1.3135	-14.7034	-18.4703	-17.4445	-20.4448	-17.2708	-13.3720	-17.7043	-28.6517	-18.0694	-21.6592	-18.7202	-22.3018	-18.1246	-18.5089
424.0000	-26.5860	-1.2442	-14.2926	-17.8630	-16.9219	-19.9308	-16.7091	-12.8743	-16.3862	-27.1574	-16.9026	-20.4489	-17.5495	-21.7233	-17.1141	-17.0845
432.0000	-26.1671	-1.2592	-14.0840	-17.5694	-16.6680	-19.4842	-16.5304	-12.7506	-16.5339	-27.0654	-16.7978	-20.3981	-17.5406	-21.5573	-16.9571	-16.9895
440.0000	-24.8081	-1.2242	-13.3620	-16.6947	-15.8322	-18.3110	-15.8092	-12.1964	-16.6212	-26.1792	-16.4261	-19.8269	-17.1291	-20.2277	-16.4555	-16.7839
448.0000	-23.5375	-1.1127	-12.6772	-15.9216	-15.0446	-17.3211	-15.1074	-11.4933	-15.7730	-24.3292	-15.2429	-18.3852	-15.8382	-18.3362	-15.3864	-15.4970
456.0000	-23.1648	-1.0771	-12.4815	-15.7550	-14.8233	-16.9974	-14.9389	-11.2955	-15.3514	-23.6742	-14.7088	-17.8177	-15.3261	-17.5914	-14.9443	-14.8632
464.0000	-22.3768	-1.0880	-12.0672	-15.2721	-14.3364	-16.3128	-14.4891	-11.0652	-15.3357	-23.4837	-14.7037	-17.7466	-15.3400	-17.1817	-14.8049	-15.0282
472.0000	-20.9464	-1.0060	-11.2985	-14.3543	-13.4338	-15.2139	-13.6263	-10.3988	-14.5145	-22.0051	-13.8749	-16.6736	-14.4037	-15.9113	-13.9523	-14.2509
480.0000	-20.2182	-0.9071	-10.9049	-13.9400	-12.9751	-14.6931	-13.2207	-9.9725	-13.6210	-20.6588	-12.9058	-15.5763	-13.3794	-14.8958	-13.1262	-13.1193
488.0000	-19.8524	-0.8916	-10.7141	-13.7624	-12.7517	-14.4144	-13.0503	-9.8893	-13.5978	-20.5271	-12.8131	-15.4728	-13.3296	-14.7021	-12.9992	-13.0620
496.0000	-18.7080	-0.8553	-10.1036	-13.0356	-12.0327	-13.5857	-12.3703	-9.4586	-13.3275	-19.8087	-12.5256	-15.0063	-12.9993	-14.0144	-12.5887	-12.9285
504.0000	-17.5816	-0.7597	-9.4968	-12.3357	-11.3204	-12.8311	-11.6927	-8.8624	-12.3355	-18.2173	-11.5121	-13.7645	-11.8948	-12.8229	-11.6564	-11.8307
512.0000	-17.2316	-0.7322	-9.3130	-12.1738	-11.1031	-12.6040	-11.5108	-8.6823	-11.8694	-17.5890	-11.0116	-13.2135	-11.4145	-12.3695	-11.2368	-11.2351
520.0000	-16.5839	-0.7599	-8.9742	-11.7872	-10.6976	-12.0924	-11.1298	-8.5056	-11.8595	-17.4374	-11.0175	-13.1441	-11.4459	-12.1585	-11.1287	-11.3828
528.0000	-15.3595	-0.7169	-8.3171	-11.0007	-9.9193	-11.1903	-10.3707	-7.9494	-11.1521	-16.2113	-10.3483	-12.2468	-10.6940	-11.2167	-10.4265	-10.7683
536.0000	-14.6995	-0.6499	-7.9584	-10.6128	-9.4971	-10.7149	-9.9807	-7.5630	-10.3212	-15.0175	-9.4967	-11.2609	-9.7952	-10.3985	-9.6953	-9.7782
544.0000	-14.3975	-0.6447	-7.7985	-10.4635	-9.3069	-10.4287	-9.8326	-7.4796	-10.2661	-14.8787	-9.3876	-11.1272	-9.7213	-10.2585	-9.5679	-9.6907
552.0000	-13.4489	-0.6168	-7.2910	-9.8648	-8.7065	-9.6495	-9.2742	-7.1124	-10.0870	-14.3141	-9.1724	-10.7492	-9.4670	-9.7580	-9.2476	-9.6140
560.0000	-12.4672	-0.5268	-6.7583	-9.2630	-8.0816	-8.8840	-8.6994	-6.5673	-9.2981	-12.9600	-8.3251	-9.6832	-8.5273	-8.8143	-8.4649	-8.7021
568.0000	-12.1579	-0.4861	-6.5887	-9.1334	-7.8865	-8.5717	-8.5622	-6.3530	-8.9401	-12.3820	-7.8772	-9.1614	-8.0767	-8.4666	-8.0934	-8.1587
576.0000	-11.6422	-0.4947	-6.3142	-8.8485	-7.5659	-8.0569	-8.2854	-6.1600	-9.0071	-12.2789	-7.9014	-9.0987	-8.1139	-8.3792	-8.0258	-8.2907
584.0000	-10.6096	-0.4405	-5.7585	-8.2076	-6.9196	-7.2114	-7.6650	-5.6438	-8.4679	-11.2786	-7.3764	-8.3569	-7.5178	-7.7154	-7.4664	-7.8158
592.0000	-10.0291	-0.3526	-5.4408	-7.8914	-6.5675	-6.7242	-7.3414	-5.2559	-7.7518	-10.2376	-6.6519	-7.4921	-6.7523	-7.1377	-6.8452	-6.9682
600.0000	-9.7956	-0.3153	-5.3120	-7.8140	-6.4475	-6.4243	-7.2595	-5.1430	-7.7128	-10.1128	-6.5604	-7.3606	-6.6927	-7.1333	-6.7463	-6.8790
608.0000	-9.0255	-0.2752	-4.8957	-7.3622	-5.9909	-5.7195	-6.8375	-4.8118	-7.6365	-9.6880	-6.4261	-7.0713	-6.5275	-6.8273	-6.5215	-6.8627
616.0000	-8.1857	-0.1987	-4.4400	-6.8641	-5.4851	-5.0364	-6.3540	-4.3269	-6.9854	-8.5520	-5.7339	-6.1737	-5.7524	-6.1187	-5.8813	-6.1258
624.0000	-7.9275	-0.1686	-4.3007	-6.7523	-5.3451	-4.7982	-6.2216	-4.1379	-6.5820	-8.0385	-5.3387	-5.7116	-5.3503	-5.9300	-5.5587	-5.6459
632.0000	-7.5338	-0.1740	-4.0919	-6.5191	-5.1165	-4.4548	-5.9851	-4.0020	-6.5335	-7.9876	-5.3726	-5.6891	-5.3955	-6.0004	-5.5168	-5.7628
640.0000	-6.6785	-0.1106	-3.6288	-5.9575	-4.5852	-3.8430	-5.4392	-3.5933	-6.0232	-7.1890	-4.9599	-5.1079	-4.9176	-5.5164	-5.0648	-5.3918
648.0000	-6.1827	-0.0056	-3.3545	-5.6435	-4.2711	-3.5329	-5.1121	-3.2764	-5.3466	-6.2974	-4.3370	-4.3749	-4.2491	-4.9958	-4.5251	-4.6560
656.0000	-6.0176	0.0544	-3.2637	-5.5437	-4.1604	-3.3876	-4.9864	-3.2044	-5.2007	-6.1991	-4.2421	-4.2721	-4.1815	-4.9794	-4.4272	-4.5450
664.0000	-5.4089	0.1080	-2.9386	-5.1287	-3.7611	-2.8732	-4.5667	-2.9601	-5.0159	-5.8997	-4.1425	-4.0843	-4.0701	-4.7952	-4.2449	-4.5393
672.0000	-4.7049	0.1914	-2.5595	-4.6534	-3.2923	-2.3553	-4.0721	-2.5714	-4.3438	-4.9627	-3.5555	-3.3625	-3.4269	-4.2770	-3.6911	-3.9246
680.0000	-4.5021	0.2298	-2.4487	-4.5089	-3.1358	-2.2553	-3.8733	-2.4262	-3.8836	-4.5208	-3.1941	-2.9795	-3.0707	-4.1814	-3.3861	-3.5023
688.0000	-4.2189	0.2112	-2.2955	-4.2694	-2.9252	-2.1011	-3.5961	-2.3283	-3.7417	-4.5214	-3.2207	-3.0008	-3.1229	-4.3479	-3.3404	-3.6052
696.0000	-3.5254	0.2148	-1.9178	-3.7237	-2.4486	-1.6850	-3.0483	-1.9792	-3.2117	-3.9017	-2.8784	-2.5573	-2.7430	-4.0687	-2.9496	-3.2952
704.0000	-3.1146	0.2295	-1.6900	-3.3725	-2.1481	-1.5080	-2.6949	-1.6971	-2.5438	-3.1524	-2.3240	-1.9423	-2.1629	-3.7183	-2.4573	-2.6310
712.0000	-3.0144	0.2009	-1.6346	-3.2319	-2.0495	-1.5312	-2.5539	-1.6542	-2.3776	-3.0869	-2.2238	-1.8659	-2.0988	-3.7515	-2.3509	-2.5050
720.0000	-2.5494	0.1843	-1.3859	-2.8380	-1.7258	-1.2866	-2.1840	-1.4857	-2.2323	-2.8975	-2.1601	-1.7557	-2.0424	-3.5775	-2.2050	-2.5142
728.0000	-1.9725	0.2286	-1.0732	-2.3786	-1.3334	-1.0167	-1.7440	-1.1708	-1.6701	-2.1401	-1.6721	-1.1719	-1.5247	-2.9911	-1.7323	-1.9743
736.0000	-1.8249	0.2680	-0.9913	-2.2147	-1.2152	-1.0882	-1.5740	-1.0527	-1.2835	-1.7716	-1.3481	-0.8454	-1.2234	-2.6608	-1.4549	-1.5409
744.0000	-1.6394	0.2735	-0.8942	-2.0043	-1.0782	-1.1450	-1.3647	-1.0057	-1.1995	-1.8197	-1.3795	-0.8945	-1.2986	-2.5466	-1.4245	-1.5851
752.0000	-1.0912	0.3005	-0.6029	-1.5368	-0.7172	-1.0051	-0.9119	-0.7649	-0.7792	-1.3562	-1.1188	-0.5712	-1.0295	-2.0586	-1.1144	-1.3209
760.0000	-0.7617	0.3350	-0.4258	-1.2312	-0.4988	-1.0698	-0.6025	-0.5739	-0.1873	-0.7394	-0.6493	-0.0734	-0.5619	-1.4852	-0.6928	-0.7199
768.0000	-0.7201	0.3199	-0.4033	-1.1243	-0.4636	-1.2876	-0.4887	-0.5867	-0.0185	-0.7083	-0.5581	-0.0361	-0.5257	-1.2645	-0.5976	-0.5509
776.0000	-0.3807	0.2957	-0.2207	-0.8089	-0.2383	-1.2149	-0.2065	-0.4910	0.0674	-0.6129	-0.5271	-0.0071	-0.5195	-0.9371	-0.4939	-0.5332
784.0000	0.0803	0.3161	0.0298	-0.4327	0.0616	-1.0236	0.1096	-0.2478	0.4249	-0.0149	-0.1348	0.4372	-0.1067	-0.2661	-0.1134	-0.0645
792.0000	0.1762	0.3405	0.0835	-0.3407	0.1220	-1.0684	0.1497	-0.1593	0.5286	0.2823	0.1301	0.6979	0.1434	0.2276	0.0991	0.3167
800.0000	0.2780	0.3453	0.1377	-0.2492	0.1826	-1.1201	0.2030	-0.1419	0.3110	0.1933	0.0621	0.6267	0.0445	0.5089	0.0673	0.2459
808.0000	0.6982	0.3743	0.3648	0.0850	0.4553	-1.0498	0.5311	0.0438	0.5100	0.5227	0.2237	0.8579	0.2212	0.9823	0.2651	0.4049
816.0000	0.9527	0.4157	0.5073	0.3397	0.6402	-1.1957	0.8392	0.2040	1.1367	1.0192	0.6035	1.2611	0.6054	1.3652	0.6039	0.9046
824.0000	0.9440	0.4162	0.5084	0.4609	0.6739	-1.5348	1.0489	0.1848	1.6030	1.0179	0.6965	1.2738	0.6430	1.2873	0.7012	1.0988
832.0000	1.1762	0.3987	0.6384	0.8102	0.8790	-1.7188	1.4860	0.2425	2.1074	1.0356	0.7416	1.2495	0.6391	1.1317	0.8188	1.1849
840.0000	1.5340	0.4035	0.8388	1.3076	1.1890	-1.8560	2.0890	0.4363	3.0611	1.4944	1.1311	1.5786	1.0019	1.0485	1.2207	1.7197
848.0000	1.5841	0.4014	0.8745	1.6349	1.3206	-2.0898	2.5376	0.5212	4.0298	1.7258	1.4759	1.7592	1.2716	0.5556	1.5474	2.2932
856.0000	1.6167	0.3837	0.8967	1.9550	1.4325	-2.0246	2.9144	0.5605	4.5844	1.6040	1.5489	1.6239	1.2403	-0.2351	1.6771	2.5190
864.0000	1.9265	0.3945	1.0651	2.4284	1.6920	-1.5011	3.3335	0.7626	4.9278	1.8210	1.7780	1.7233	1.4116	-0.6574	1.9558	2.8714
872.0000	2.1145	0.4191	1.1681	2.7640	1.8492	-0.9767	3.5710	0.9551	5.0879	2.2107	2.1546	1.9971	1.7504	-0.7599	2.2986	3.4198
880.0000	2.0651	0.3989	1.1417	2.9026	1.8504	-0.6421	3.6571	0.9621	4.9639	2.1812	2.2464	1.9513	1.7790	-0.9763	2.3851	3.6161
888.0000	2.2081	0.3444	1.2138	3.1678	1.9877	-0.2869	3.9445	0.9709	5.0403	2.1374	2.2536	1.8446	1.7388	-1.1486	2.4550	3.6295
896.0000	2.4765	0.2857	1.3496	3.5284	2.2272	-0.0186	4.3924	1.0506	5.6621	2.4775	2.5430	2.0277	2.0053	-1.1084	2.7666	3.9788
904.0000	2.4881	0.1903	1.3456	3.7349	2.3236	-0.0150	4.7155	1.0205	6.3310	2.6503	2.8048	2.0982	2.2094	-1.1695	3.0220	4.3654
912.0000	2.4659	0.0494	1.3233	3.9511	2.4065	-0.0393	5.0131	0.9501	6.7105	2.5047	2.8304	1.8931	2.1541	-1.3111	3.1048	4.4702
920.0000	2.6832	-0.0752	1.4299	4.3477	2.6297	-0.0225	5.4083	1.0410	7.0952	2.6302	2.9930	1.8802	2.2717	-1.1100	3.3292	4.7167
928.0000	2.8143	-0.1609	1.4881	4.6535	2.7631	-0.2509	5.6220	1.1715	7.3760	2.9275	3.3096	2.0363	2.5555	-0.6054	3.6375	5.1877
936.0000	2.7340	-0.2440	1.4302	4.7382	2.7163	-0.5394	5.5380	1.1971	7.0561	2.8757	3.3771	1.9349	2.5706	-0.0527	3.7023	5.3586
944.0000	2.8055	-0.3251	1.4587	4.8515	2.7394	-0.3628	5.4604	1.2781	6.3831	2.7859	3.3154	1.7848	2.4858	0.6957	3.6740	5.2860
952.0000	2.9985	-0.3901	1.5644	5.0206	2.8529	0.1472	5.5120	1.4728	6.0494	3.0270	3.4620	1.9139	2.6532	1.6094	3.8094	5.4281
960.0000	2.9798	-0.4828	1.5624	5.0659	2.8671	0.4965	5.5535	1.5963	6.1159	3.1499	3.6049	1.9846	2.7973	2.2121	3.9172	5.6091
968.0000	2.9167	-0.6391	1.5318	5.1085	2.8783	0.7430	5.6467	1.6587	6.3103	2.9895	3.5627	1.8073	2.7297	2.4699	3.9002	5.5720
976.0000	3.0585	-0.8221	1.6069	5.3004	3.0290	1.1070	5.8835	1.8121	6.6437	3.0431	3.6423	1.7651	2.8070	2.8033	4.0125	5.6608
984.0000	3.1427	-0.9842	1.6556	5.4593	3.1476	1.3755	6.0763	1.9632	7.0230	3.2627	3.8858	1.8807	3.0564	3.1433	4.2304	5.9794
992.0000	3.0414	-1.0998	1.6096	5.4990	3.1450	1.4414	6.1261	1.9974	7.1521	3.1948	3.9608	1.7993	3.1106	3.1650	4.2933	6.1153
1000.0000	3.0579	-1.1328	1.6248	5.6086	3.2021	1.5702	6.1985	2.0563	7.0924	3.0735	3.9379	1.6659	3.0733	3.0788	4.3051	6.0920
1008.0000	3.1893	-1.0742	1.6986	5.7721	3.3204	1.7778	6.3053	2.1965	7.0978	3.2345	4.0842	1.7625	3.2304	3.1576	4.4535	6.2571
1016.0000	3.1484	-0.9805	1.6843	5.8067	3.3318	1.8317	6.2966	2.2590	7.0797	3.3165	4.2148	1.8294	3.3539	3.1850	4.5555	6.4286
1024.0000	3.0574	-0.8975	1.6509	5.8041	3.3141	1.8205	6.2317	2.2507	6.8964	3.1499	4.1568	1.7070	3.2689	3.0609	4.5107	6.3500
1032.0000	3.1397	-0.8168	1.7114	5.9012	3.3979	1.9184	6.2150	2.3163	6.6770	3.1495	4.1625	1.7149	3.2709	3.0398	4.5345	6.2985
1040.0000	3.1871	-0.7478	1.7440	5.9503	3.4513	1.9641	6.1314	2.3866	6.4576	3.3056	4.2921	1.8695	3.4057	3.1003	4.6255	6.3910
1048.0000	3.0738	-0.7245	1.6814	5.8783	3.4014	1.8644	5.9309	2.3512	6.1094	3.2281	4.2801	1.8441	3.3722	3.0206	4.5725	6.3056
1056.0000	3.0502	-0.7307	1.6686	5.8543	3.4063	1.8201	5.7625	2.3256	5.7124	3.0881	4.1820	1.7430	3.2553	2.9286	4.4659	6.0673
1064.0000	3.1331	-0.7194	1.7205	5.8787	3.4745	1.8511	5.6404	2.3768	5.4260	3.1864	4.2296	1.8302	3.3146	2.9680	4.4785	5.9884
1072.0000	3.0779	-0.6824	1.7006	5.7917	3.4525	1.7771	5.4435	2.3757	5.1736	3.2364	4.2742	1.9007	3.3691	2.9229	4.4647	5.9403
1080.0000	2.9702	-0.6232	1.6480	5.6573	3.3880	1.6662	5.2097	2.3143	4.8583	3.0712	4.1561	1.7888	3.2474	2.7280	4.3276	5.7002
1088.0000	3.0077	-0.5253	1.6698	5.5981	3.3993	1.6651	5.0231	2.3160	4.5356	3.0328	4.0808	1.7537	3.1866	2.6266	4.2427	5.4839
1096.0000	3.0276	-0.4072	1.6836	5.5111	3.3982	1.6536	4.8285	2.3373	4.2394	3.1386	4.1166	1.8455	3.2489	2.5988	4.2262	5.4031
1104.0000	2.9102	-0.3229	1.6251	5.3412	3.3239	1.5495	4.6101	2.2807	3.9928	3.0573	4.0504	1.8037	3.1895	2.4362	4.1154	5.2109
1112.0000	2.8597	-0.2827	1.6006	5.2097	3.2840	1.4951	4.4061	2.2253	3.8024	2.9097	3.9148	1.6949	3.0572	2.2611	3.9732	4.9174
1120.0000	2.9059	-0.2580	1.6263	5.0842	3.2659	1.4938	4.1078	2.2231	3.4230	2.9608	3.8866	1.7384	3.0558	2.2347	3.9106	4.7296
1128.0000	2.8432	-0.2476	1.5942	4.8262	3.1520	1.4098	3.6591	2.1740	2.6664	2.9869	3.8337	1.7750	3.0372	2.1567	3.7833	4.4893
1136.0000	2.7286	-0.2561	1.5350	4.5372	3.0197	1.3265	3.2880	2.0795	1.9657	2.8296	3.6335	1.6597	2.8663	1.9123	3.5376	4.0388
1144.0000	2.7340	-0.2516	1.5396	4.3705	2.9903	1.3652	3.1457	2.0517	1.8553	2.7667	3.4911	1.6053	2.7609	1.7223	3.3807	3.6605
1152.0000	2.7347	-0.2128	1.5413	4.2271	2.9683	1.3760	3.0532	2.0538	2.0907	2.8342	3.4797	1.6650	2.7853	1.6506	3.3413	3.4994
1160.0000	2.6198	-0.1616	1.4817	4.0179	2.8731	1.2479	2.8841	1.9925	2.1248	2.7542	3.3902	1.6183	2.7135	1.5254	3.2336	3.2914
1168.0000	2.5534	-0.1171	1.4484	3.8508	2.8052	1.1374	2.7397	1.9323	1.9803	2.6079	3.2242	1.5101	2.5663	1.3710	3.0834	2.9935
1176.0000	2.5733	-0.0808	1.4595	3.7358	2.7799	1.1224	2.6152	1.9314	1.8721	2.6252	3.1559	1.5364	2.5345	1.3096	3.0194	2.8212
1184.0000	2.5088	-0.0687	1.4233	3.5459	2.6882	1.0994	2.3895	1.9087	1.6585	2.6347	3.0987	1.5770	2.5127	1.2638	2.9415	2.6774
1192.0000	2.3950	-0.0923	1.3604	3.3102	2.5590	1.0935	2.1096	1.8497	1.2670	2.4900	2.9201	1.4949	2.3632	1.2321	2.7606	2.3702
1200.0000	2.3791	-0.1241	1.3512	3.1215	2.4768	1.2079	1.8503	1.8393	0.8758	2.4139	2.7534	1.4577	2.2433	1.4500	2.6022	2.0590
1208.0000	2.3676	-0.1334	1.3447	2.8967	2.3690	1.3678	1.5128	1.8535	0.4233	2.4534	2.6601	1.5255	2.2169	1.9726	2.4882	1.8485
1216.0000	2.2601	-0.1170	1.2865	2.5781	2.1862	1.4817	1.0931	1.8167	-0.2183	2.3786	2.4816	1.5137	2.1073	2.5446	2.2842	1.5308
1224.0000	2.1867	-0.0725	1.2475	2.2954	2.0406	1.6048	0.7913	1.7778	-0.7099	2.2402	2.2354	1.4343	1.9328	2.9630	2.0409	1.1052
1232.0000	2.1889	0.0037	1.2495	2.0983	1.9660	1.7299	0.6542	1.7821	-0.7222	2.2349	2.0965	1.4452	1.8694	3.1906	1.9066	0.8341
1240.0000	2.1270	0.0858	1.2157	1.8780	1.8614	1.7605	0.5178	1.7586	-0.5502	2.2339	2.0104	1.4609	1.8434	3.2604	1.8129	0.6971
1248.0000	2.0196	0.1419	1.1555	1.6259	1.7300	1.7504	0.3299	1.6928	-0.5901	2.1050	1.8435	1.3669	1.7207	3.3553	1.6535	0.4908
1256.0000	1.9912	0.1735	1.1363	1.4093	1.6433	1.8215	0.1272	1.6652	-0.8235	2.0243	1.6817	1.2985	1.6106	3.7009	1.5033	0.2657
1264.0000	1.9731	0.1932	1.1213	1.1610	1.5457	1.9385	-0.1779	1.6642	-1.2291	2.0443	1.5814	1.3195	1.5745	4.2767	1.3821	0.0836
1272.0000	1.8764	0.1988	1.0624	0.8040	1.3771	2.0530	-0.6416	1.6195	-1.9423	1.9774	1.4083	1.2845	1.4695	4.9554	1.1725	-0.2326
1280.0000	1.8026	0.2015	1.0157	0.4122	1.2082	2.2440	-1.1524	1.5656	-2.8355	1.8517	1.1462	1.2035	1.2919	5.7769	0.8862	-0.7235
1288.0000	1.7940	0.2294	1.0059	0.0363	1.0666	2.5265	-1.6566	1.5531	-3.6575	1.8326	0.9226	1.2355	1.1787	6.7104	0.6311	-1.2098
1296.0000	1.7377	0.2816	0.9716	-0.3815	0.8839	2.8085	-2.1932	1.5340	-4.4237	1.8258	0.7073	1.3422	1.0807	7.4489	0.3681	-1.6935
1304.0000	1.6405	0.3253	0.9154	-0.8252	0.6880	3.0752	-2.6455	1.4847	-5.0565	1.7142	0.4163	1.3889	0.8976	7.7780	0.0486	-2.2664
1312.0000	1.6061	0.3422	0.8941	-1.1998	0.5721	3.3121	-2.8345	1.4516	-5.1445	1.6353	0.1585	1.3913	0.7366	7.8063	-0.2069	-2.7496
1320.0000	1.5855	0.3362	0.8824	-1.4954	0.5050	3.3601	-2.8213	1.4149	-4.6107	1.6427	0.0268	1.3629	0.6757	7.6939	-0.3298	-2.9561
1328.0000	1.5014	0.3105	0.8365	-1.7401	0.4168	3.1492	-2.7838	1.3132	-3.9782	1.5851	-0.0783	1.2394	0.6005	7.5449	-0.4228	-3.0176
1336.0000	1.4319	0.2721	0.7974	-1.9029	0.3479	2.8701	-2.7297	1.1828	-3.5838	1.4745	-0.2019	1.0838	0.4835	7.4976	-0.5260	-3.0714
1344.0000	1.4177	0.2376	0.7904	-1.9909	0.3338	2.6880	-2.5915	1.0884	-3.2128	1.4483	-0.2590	1.0012	0.4342	7.5096	-0.5695	-3.0336
1352.0000	1.3686	0.2103	0.7696	-2.0711	0.3236	2.5540	-2.4054	1.0094	-2.6953	1.4391	-0.2654	0.9058	0.4341	7.2799	-0.5682	-2.8808
1360.0000	1.2836	0.1797	0.7302	-2.1392	0.3029	2.4180	-2.2233	0.9240	-2.1909	1.3451	-0.3037	0.7094	0.3951	6.7212	-0.5817	-2.7170
1368.0000	1.2479	0.1528	0.7137	-2.1488	0.3016	2.3253	-2.0552	0.8652	-1.8391	1.2719	-0.3368	0.5254	0.3638	6.1559	-0.5795	-2.5414
1376.0000	1.2277	0.1528	0.7033	-2.1278	0.2839	2.2648	-1.9520	0.8282	-1.6596	1.2719	-0.3279	0.4359	0.3765	5.8256	-0.5509	-2.3284
1384.0000	1.1567	0.1801	0.6656	-2.1105	0.2126	2.1824	-1.9567	0.7741	-1.6969	1.2241	-0.3567	0.3710	0.3433	5.6481	-0.5689	-2.1867
1392.0000	1.0940	0.2060	0.6296	-2.0710	0.1385	2.1028	-2.0100	0.7165	-1.9069	1.1293	-0.4433	0.3292	0.2488	5.5491	-0.6382	-2.1686
1400.0000	1.0777	0.2061	0.6133	-2.0280	0.0952	2.0656	-2.0435	0.6761	-2.0937	1.1007	-0.5059	0.3645	0.1823	5.5630	-0.6901	-2.1717
1408.0000	1.0366	0.1813	0.5830	-2.0453	0.0420	2.0650	-2.0635	0.6217	-2.1466	1.0914	-0.5446	0.3855	0.1342	5.6048	-0.7314	-2.1584
1416.0000	0.9641	0.1463	0.5410	-2.0952	-0.0247	2.1329	-2.0776	0.5510	-2.1277	1.0139	-0.6130	0.3020	0.0473	5.5387	-0.7980	-2.1759
1424.0000	0.9302	0.1137	0.5234	-2.1050	-0.0665	2.3066	-2.0810	0.5103	-2.1167	0.9486	-0.6729	0.2154	-0.0244	5.3917	-0.8510	-2.1861
1432.0000	0.9120	0.0896	0.5135	-2.0987	-0.1043	2.5148	-2.1111	0.4921	-2.1651	0.9447	-0.6953	0.2085	-0.0419	5.2508	-0.8755	-2.1564
1440.0000	0.8533	0.0736	0.4800	-2.1238	-0.1707	2.6643	-2.1798	0.4503	-2.2911	0.9063	-0.7480	0.1984	-0.0808	5.1164	-0.9297	-2.1698
1448.0000	0.7985	0.0631	0.4494	-2.1412	-0.2309	2.7638	-2.2159	0.3987	-2.3834	0.8266	-0.8419	0.1466	-0.1574	4.9707	-1.0095	-2.2395
1456.0000	0.7826	0.0557	0.4414	-2.1180	-0.2638	2.8282	-2.1791	0.3648	-2.2969	0.7985	-0.8976	0.1193	-0.1946	4.7950	-1.0469	-2.2508
1464.0000	0.7490	0.0496	0.4247	-2.0904	-0.3093	2.8113	-2.1190	0.3150	-2.0781	0.7904	-0.9146	0.1045	-0.2029	4.5385	-1.0514	-2.1868
1472.0000	0.6884	0.0432	0.3926	-2.0632	-0.3735	2.7287	-2.0629	0.2275	-1.8806	0.7276	-0.9531	0.0521	-0.2474	4.2242	-1.0727	-2.1346
1480.0000	0.6576	0.0365	0.3758	-1.9980	-0.4202	2.6784	-1.9851	0.1389	-1.7198	0.6707	-0.9885	0.0176	-0.2946	3.9408	-1.0869	-2.0817
1488.0000	0.6422	0.0331	0.3683	-1.9103	-0.4596	2.6914	-1.8945	0.0582	-1.5368	0.6652	-0.9801	0.0432	-0.2984	3.6577	-1.0673	-1.9743
1496.0000	0.5944	0.0374	0.3451	-1.8430	-0.5169	2.7195	-1.8176	-0.0452	-1.3638	0.6351	-0.9720	0.0561	-0.3049	3.2835	-1.0534	-1.8649
1504.0000	0.5474	0.0472	0.3228	-1.7852	-0.5618	2.7467	-1.7293	-0.1608	-1.2280	0.5687	-0.9862	0.0221	-0.3317	2.8856	-1.0563	-1.7914
1512.0000	0.5329	0.0542	0.3171	-1.7190	-0.5716	2.7763	-1.6060	-0.2610	-1.0584	0.5426	-0.9728	-0.0069	-0.3249	2.5699	-1.0338	-1.6901
1520.0000	0.5061	0.0585	0.3057	-1.6644	-0.5773	2.7794	-1.4804	-0.3650	-0.8327	0.5363	-0.9309	-0.0370	-0.2909	2.2713	-0.9905	-1.5509
1528.0000	0.4556	0.0702	0.2834	-1.6176	-0.5884	2.7559	-1.3742	-0.4843	-0.6394	0.4857	-0.9091	-0.1074	-0.2837	1.9176	-0.9628	-1.4409
1536.0000	0.4284	0.0851	0.2737	-1.5458	-0.5801	2.7519	-1.2621	-0.5812	-0.5133	0.4365	-0.8941	-0.1731	-0.2866	1.5626	-0.9353	-1.3453
1544.0000	0.4160	0.0813	0.2706	-1.4527	-0.5669	2.7805	-1.1298	-0.6443	-0.3754	0.4308	-0.8511	-0.1944	-0.2691	1.1759	-0.8846	-1.2051
1552.0000	0.3771	0.0587	0.2535	-1.3598	-0.5780	2.8219	-0.9885	-0.7084	-0.1800	0.4076	-0.8061	-0.2244	-0.2642	0.6371	-0.8340	-1.0548
1560.0000	0.3369	0.0555	0.2383	-1.2529	-0.5912	2.8860	-0.8418	-0.7784	0.0201	0.3521	-0.7769	-0.2851	-0.2781	0.0107	-0.7909	-0.9411
1568.0000	0.3242	0.0987	0.2410	-1.1199	-0.5766	2.9718	-0.6922	-0.8352	0.1826	0.3284	-0.7315	-0.3195	-0.2616	-0.5784	-0.7294	-0.8302
1576.0000	0.3030	0.1633	0.2408	-0.9829	-0.5459	3.0304	-0.5544	-0.8930	0.3409	0.3242	-0.6702	-0.3191	-0.2190	-1.2602	-0.6581	-0.7127
1584.0000	0.2605	0.2048	0.2270	-0.8578	-0.5116	3.0499	-0.4480	-0.9579	0.4950	0.2831	-0.6270	-0.3298	-0.1945	-2.1179	-0.6061	-0.6344
1592.0000	0.2366	0.1993	0.2158	-0.7512	-0.4810	3.0934	-0.4137	-0.9947	0.4969	0.2402	-0.5960	-0.3520	-0.1807	-2.7585	-0.5698	-0.5762
1600.0000	0.2270	0.1334	0.2051	-0.6896	-0.4923	3.1960	-0.4931	-1.0105	0.1821	0.2350	-0.5687	-0.3738	-0.1722	-2.7423	-0.5554	-0.4747
1608.0000	0.1949	0.0029	0.1816	-0.6840	-0.5642	3.3109	-0.6396	-1.0750	-0.3445	0.2174	-0.5755	-0.4206	-0.2120	-2.2545	-0.5950	-0.3446
1616.0000	0.1598	-0.1484	0.1606	-0.7029	-0.6463	3.3781	-0.7342	-1.2047	-0.7240	0.1700	-0.6084	-0.4862	-0.2850	-1.8727	-0.6675	-0.2378
1624.0000	0.1490	-0.2330	0.1570	-0.7290	-0.6974	3.3720	-0.7375	-1.3300	-0.7575	0.1483	-0.6121	-0.5295	-0.3088	-1.8630	-0.7093	-0.1609
1632.0000	0.1322	-0.1980	0.1546	-0.7758	-0.7422	3.2991	-0.7229	-1.4052	-0.6296	0.1462	-0.5919	-0.5585	-0.2784	-2.0689	-0.7191	-0.1184
1640.0000	0.0956	-0.0720	0.1454	-0.8291	-0.7992	3.2057	-0.7374	-1.4492	-0.5911	0.1121	-0.5998	-0.5902	-0.2610	-2.2810	-0.7388	-0.1192
1648.0000	0.0742	0.0762	0.1430	-0.8504	-0.8497	3.1564	-0.7525	-1.4766	-0.6374	0.0736	-0.6236	-0.5911	-0.2584	-2.4316	-0.7597	-0.1190
1656.0000	0.0670	0.1908	0.1414	-0.8402	-0.8976	3.1775	-0.7605	-1.4783	-0.6621	0.0693	-0.6240	-0.5678	-0.2344	-2.5485	-0.7576	-0.0858
1664.0000	0.0398	0.2352	0.1247	-0.8274	-0.9584	3.2577	-0.7947	-1.4529	-0.7050	0.0560	-0.6251	-0.5877	-0.2135	-2.6565	-0.7590	-0.0715
1672.0000	0.0082	0.1941	0.1064	-0.8221	-1.0037	3.3869	-0.8608	-1.3996	-0.8527	0.0160	-0.6514	-0.6290	-0.2162	-2.7231	-0.7806	-0.0962
1680.0000	-0.0010	0.0929	0.1011	-0.8270	-1.0094	3.5451	-0.9361	-1.3107	-1.0673	-0.0017	-0.6813	-0.6016	-0.2100	-2.7490	-0.7993	-0.1062
1688.0000	-0.0000	-0.0117	0.0996	-0.8367	-0.9982	3.7017	-0.9969	-1.1925	-1.2461	-0.0000	-0.7109	-0.5225	-0.1962	-2.8615	-0.8098	-0.0989
1696.0000	-0.0000	-0.0682	0.0974	-0.8295	-0.9892	3.8281	-1.0172	-1.0613	-1.3080	-0.0000	-0.7398	-0.4514	-0.1908	-3.1600	-0.8137	-0.0975
1704.0000	-0.0000	-0.0553	0.0974	-0.7979	-0.9736	3.8838	-0.9821	-0.9374	-1.2289	-0.0000	-0.7607	-0.3842	-0.1897	-3.6349	-0.8067	-0.0958
1712.0000	-0.0000	0.0233	0.0988	-0.7329	-0.9385	3.8380	-0.8863	-0.8289	-1.0109	-0.0000	-0.7742	-0.2992	-0.1864	-4.3071	-0.7858	-0.0850
1720.0000	-0.0000	0.1426	0.1006	-0.6063	-0.8773	3.6940	-0.7279	-0.7240	-0.6670	-0.0000	-0.7729	-0.2035	-0.1769	-5.2271	-0.7454	-0.0690
1728.0000	-0.0000	0.2514	0.1045	-0.4168	-0.7855	3.4405	-0.5152	-0.6184	-0.2605	-0.0000	-0.7440	-0.1121	-0.1646	-6.2899	-0.6864	-0.0510
1736.0000	-0.0000	0.2958	0.1110	-0.1877	-0.6630	3.0117	-0.2472	-0.5286	0.1725	-0.0000	-0.6842	-0.0246	-0.1528	-7.2947	-0.6138	-0.0270
1744.0000	-0.0000	0.2590	0.1183	0.0991	-0.5258	2.3442	0.0970	-0.4704	0.7227	-0.0000	-0.5956	0.0559	-0.1331	-8.2173	-0.5208	-0.0014
1752.0000	-0.0000	0.1583	0.1238	0.4740	-0.3985	1.4653	0.4988	-0.4359	1.4365	-0.0000	-0.4771	0.1224	-0.0921	-9.1121	-0.3973	0.0131
1760.0000	-0.0000	0.0224	0.1267	0.8838	-0.2927	0.4896	0.8657	-0.4031	2.0958	-0.0000	-0.3387	0.1843	-0.0279	-9.7914	-0.2559	0.0136
1768.0000	-0.0000	-0.1029	0.1278	1.2380	-0.1996	-0.4669	1.1273	-0.3632	2.4337	-0.0000	-0.2045	0.2512	0.0488	-10.0204	-0.1249	0.0085
1776.0000	-0.0000	-0.1539	0.1287	1.5327	-0.1050	-1.3566	1.3214	-0.3273	2.5141	-0.0000	-0.0844	0.3125	0.1300	-9.9497	-0.0133	0.0032
1784.0000	-0.0000	-0.1006	0.1299	1.8155	-0.0047	-2.2200	1.5159	-0.3070	2.6069	-0.0000	0.0326	0.3612	0.2156	-9.9115	0.0913	-0.0006
1792.0000	-0.0000	0.0130	0.1312	2.0704	0.0941	-3.1495	1.7021	-0.2987	2.7707	-0.0000	0.1508	0.4081	0.3043	-9.8966	0.1951	0.0005
1800.0000	-0.0000	0.1168	0.1320	2.2401	0.1809	-4.1693	1.8282	-0.2934	2.8447	-0.0000	0.2592	0.4574	0.3874	-9.6373	0.2917	0.0064
1808.0000	-0.0000	0.1838	0.1308	2.2901	0.2471	-5.1022	1.8645	-0.2875	2.7268	-0.0000	0.3474	0.5005	0.4507	-9.0441	0.3724	0.0133
1816.0000	-0.0000	0.2230	0.1250	2.1825	0.2859	-5.6358	1.7918	-0.2779	2.4023	-0.0000	0.4040	0.5393	0.4809	-8.2502	0.4238	0.0238
1824.0000	-0.0000	0.2331	0.1153	1.8835	0.2965	-5.6090	1.6016	-0.2595	1.8637	-0.0000	0.4153	0.5806	0.4733	-7.4223	0.4328	0.0448
1832.0000	-0.0000	0.2073	0.1046	1.4336	0.2843	-5.1906	1.3284	-0.2353	1.1930	-0.0000	0.3841	0.6179	0.4326	-6.6841	0.4025	0.0726
1840.0000	-0.0000	0.1635	0.0936	0.9024	0.2507	-4.7032	1.0089	-0.2138	0.5258	-0.0000	0.3261	0.6489	0.3632	-5.9778	0.3437	0.0966
1848.0000	-0.0000	0.1294	0.0816	0.2989	0.1946	-4.3345	0.6372	-0.1947	-0.1421	-0.0000	0.2416	0.6875	0.2690	-5.0364	0.2542	0.1142
1856.0000	-0.0000	0.1067	0.0721	-0.3470	0.1283	-4.0870	0.2337	-0.1718	-0.8550	-0.0000	0.1269	0.7348	0.1675	-3.7923	0.1355	0.1309
1864.0000	-0.0000	0.0791	0.0668	-0.9029	0.0723	-3.9138	-0.1187	-0.1470	-1.4563	-0.0000	0.0050	0.7720	0.0819	-2.6039	0.0108	0.1483
1872.0000	-0.0000	0.0441	0.0602	-1.2828	0.0260	-3.7855	-0.3862	-0.1244	-1.7796	-0.0000	-0.1028	0.7937	0.0145	-1.7579	-0.1030	0.1640
1880.0000	-0.0000	0.0130	0.0492	-1.5516	-0.0279	-3.6846	-0.6205	-0.1018	-1.9437	-0.0000	-0.2100	0.8110	-0.0477	-1.1143	-0.2119	0.1783
1888.0000	-0.0000	-0.0110	0.0409	-1.7600	-0.0881	-3.6213	-0.8315	-0.0791	-2.1095	-0.0000	-0.3235	0.8216	-0.1008	-0.5365	-0.3116	0.1910
1896.0000	-0.0000	-0.0290	0.0381	-1.8629	-0.1414	-3.6014	-0.9707	-0.0591	-2.1853	-0.0000	-0.4163	0.8187	-0.1333	-0.1362	-0.3850	0.1997
1904.0000	-0.0000	-0.0274	0.0299	-1.9156	-0.2053	-3.5406	-1.0875	-0.0294	-2.1298	-0.0000	-0.4912	0.8195	-0.1625	0.1789	-0.4509	0.2082
1912.0000	-0.0000	0.0096	0.0101	-2.1083	-0.3107	-3.3183	-1.3127	0.0271	-2.2164	-0.0000	-0.6055	0.8408	-0.2187	0.7725	-0.5553	0.2261
1920.0000	-0.0000	0.0701	-0.0104	-2.4822	-0.4441	-2.9548	-1.6462	0.0956	-2.6197	-0.0000	-0.7777	0.8665	-0.2963	1.6533	-0.6974	0.2541
1928.0000	-0.0000	0.1205	-0.0218	-2.8511	-0.5588	-2.6066	-1.9454	0.1377	-3.0880	-0.0000	-0.9475	0.8757	-0.3646	2.4022	-0.8283	0.2791
1936.0000	-0.0000	0.1431	-0.0301	-3.0887	-0.6413	-2.3562	-2.1444	0.1446	-3.3453	-0.0000	-1.0728	0.8754	-0.4172	2.8427	-0.9313	0.2891
1944.0000	-0.0000	0.1476	-0.0419	-3.2536	-0.7148	-2.1503	-2.3052	0.1433	-3.4576	-0.0000	-1.1833	0.8776	-0.4689	3.1824	-1.0330	0.2876
1952.0000	-0.0000	0.1474	-0.0521	-3.3884	-0.7863	-1.9608	-2.4581	0.1474	-3.5593	-0.0000	-1.3037	0.8765	-0.5178	3.4969	-1.1389	0.2848
1960.0000	-0.0000	0.1454	-0.0566	-3.4410	-0.8422	-1.8394	-2.5653	0.1429	-3.5986	-0.0000	-1.4108	0.8671	-0.5518	3.6558	-1.2257	0.2840
1968.0000	-0.0000	0.1454	-0.0602	-3.4129	-0.8848	-1.7863	-2.6291	0.1269	-3.5406	-0.0000	-1.4917	0.8588	-0.5757	3.6908	-1.2915	0.2817
1976.0000	-0.0000	0.1553	-0.0661	-3.3798	-0.9295	-1.7230	-2.6910	0.1159	-3.4848	-0.0000	-1.5668	0.8553	-0.6015	3.7497	-1.3546	0.2777
1984.0000	-0.0000	0.1741	-0.0724	-3.3599	-0.9773	-1.6196	-2.7505	0.1148	-3.4678	-0.0000	-1.6432	0.8490	-0.6282	3.8139	-1.4159	0.2750
1992.0000	-0.0000	0.1921	-0.0796	-3.3183	-1.0227	-1.5141	-2.7863	0.1119	-3.4199	-0.0000	-1.7081	0.8373	-0.6548	3.7961	-1.4661	0.2729
2000.0000	-0.0000	0.2062	-0.0901	-3.2663	-1.0696	-1.4027	-2.8131	0.1036	-3.3403	-0.0000	-1.7641	0.8244	-0.6894	3.7346	-1.5111	0.2689
2008.0000	-0.0000	0.2198	-0.1016	-3.2380	-1.1210	-1.2400	-2.8487	0.0970	-3.2966	-0.0000	-1.8223	0.8103	-0.7328	3.6900	-1.5584	0.2645
2016.0000	-0.0000	0.2329	-0.1117	-3.2132	-1.1703	-1.0421	-2.8746	0.0913	-3.2813	-0.0000	-1.8780	0.7932	-0.7740	3.6543	-1.6020	0.2618
2024.0000	-0.0000	0.2440	-0.1224	-3.1391	-1.2133	-0.8877	-2.8671	0.0773	-3.2236	-0.0000	-1.9235	0.7741	-0.8080	3.6239	-1.6377	0.2581
2032.0000	-0.0000	0.2563	-0.1337	-2.9846	-1.2489	-0.8258	-2.8187	0.0502	-3.0817	-0.0000	-1.9587	0.7523	-0.8379	3.5628	-1.6664	0.2502
2040.0000	-0.0000	0.2691	-0.1425	-2.7488	-1.2693	-0.8543	-2.7231	0.0088	-2.8459	-0.0000	-1.9768	0.7267	-0.8615	3.3585	-1.6802	0.2403
2048.0000	-0.0000	0.2713	-0.1485	-2.4676	-1.2691	-0.9609	-2.5860	-0.0475	-2.5400	-0.0000	-1.9687	0.7013	-0.8751	2.9997	-1.6713	0.2307
2056.0000	-0.0000	0.2553	-0.1547	-2.2034	-1.2561	-1.1241	-2.4376	-0.1132	-2.2402	-0.0000	-1.9427	0.6798	-0.8827	2.6518	-1.6478	0.2184
2064.0000	-0.0000	0.2265	-0.1606	-1.9862	-1.2406	-1.3009	-2.2995	-0.1774	-2.0051	-0.0000	-1.9110	0.6598	-0.8883	2.4147	-1.6210	0.2019
2072.0000	-0.0000	0.1937	-0.1641	-1.7912	-1.2231	-1.4506	-2.1634	-0.2317	-1.8117	-0.0000	-1.8705	0.6375	-0.8887	2.1973	-1.5897	0.1842
2080.0000	-0.0000	0.1611	-0.1667	-1.5908	-1.2023	-1.5547	-2.0194	-0.2717	-1.6174	-0.0000	-1.8197	0.6133	-0.8809	1.9137	-1.5508	0.1685
2088.0000	-0.0000	0.1353	-0.1708	-1.3786	-1.1806	-1.6113	-1.8687	-0.2959	-1.4155	-0.0000	-1.7696	0.5866	-0.8667	1.5863	-1.5070	0.1563
2096.0000	-0.0000	0.1282	-0.1755	-1.1398	-1.1571	-1.6378	-1.7031	-0.3105	-1.1898	-0.0000	-1.7213	0.5542	-0.8466	1.2129	-1.4563	0.1488
2104.0000	-0.0000	0.1427	-0.1803	-0.8626	-1.1280	-1.6634	-1.5136	-0.3272	-0.9118	-0.0000	-1.6597	0.5156	-0.8201	0.7455	-1.3932	0.1445
2112.0000	-0.0000	0.1664	-0.1859	-0.5801	-1.0936	-1.6955	-1.3165	-0.3486	-0.6099	-0.0000	-1.5802	0.4741	-0.7905	0.2229	-1.3208	0.1386
2120.0000	-0.0000	0.1837	-0.1902	-0.3527	-1.0573	-1.7107	-1.1404	-0.3655	-0.3607	-0.0000	-1.4950	0.4349	-0.7636	-0.2311	-1.2487	0.1304
2128.0000	-0.0000	0.1869	-0.1909	-0.2133	-1.0213	-1.6971	-0.9987	-0.3716	-0.2087	-0.0000	-1.4140	0.4035	-0.7436	-0.5369	-1.1822	0.1250
2136.0000	-0.0000	0.1730	-0.1901	-0.1481	-0.9877	-1.6809	-0.8883	-0.3716	-0.1453	-0.0000	-1.3407	0.3816	-0.7319	-0.7020	-1.1247	0.1223
2144.0000	-0.0000	0.1395	-0.1904	-0.0979	-0.9562	-1.7024	-0.7914	-0.3731	-0.1224	-0.0000	-1.2761	0.3643	-0.7242	-0.7841	-1.0769	0.1178
2152.0000	-0.0000	0.0915	-0.1904	0.0256	-0.9205	-1.7935	-0.6712	-0.3815	-0.0474	-0.0000	-1.2105	0.3451	-0.7097	-0.8679	-1.0277	0.1119
2160.0000	-0.0000	0.0468	-0.1881	0.2846	-0.8746	-1.9726	-0.4929	-0.4005	0.1732	-0.0000	-1.1235	0.3215	-0.6816	-1.0410	-0.9606	0.1083
2168.0000	-0.0000	0.0263	-0.1848	0.6670	-0.8184	-2.2311	-0.2533	-0.4286	0.5521	-0.0000	-1.0042	0.2910	-0.6438	-1.3517	-0.8698	0.1033
2176.0000	-0.0000	0.0365	-0.1820	1.1073	-0.7523	-2.5231	0.0252	-0.4564	1.0192	-0.0000	-0.8565	0.2515	-0.6018	-1.7772	-0.7599	0.0938
2184.0000	-0.0000	0.0650	-0.1788	1.5349	-0.6752	-2.7784	0.3171	-0.4738	1.4870	-0.0000	-0.6853	0.2083	-0.5555	-2.2261	-0.6357	0.0863
2192.0000	-0.0000	0.0918	-0.1746	1.8950	-0.5910	-2.9240	0.5984	-0.4744	1.8840	-0.0000	-0.4974	0.1714	-0.5048	-2.6076	-0.5037	0.0859
2200.0000	-0.0000	0.1011	-0.1692	2.1761	-0.5062	-2.9168	0.8571	-0.4489	2.1790	-0.0000	-0.3063	0.1440	-0.4529	-2.9176	-0.3728	0.0878
2208.0000	-0.0000	0.0862	-0.1620	2.4380	-0.4200	-2.7944	1.1112	-0.3880	2.4227	-0.0000	-0.1192	0.1221	-0.4006	-3.2206	-0.2440	0.0936
2216.0000	-0.0000	0.0521	-0.1528	2.7710	-0.3267	-2.6693	1.3954	-0.3006	2.7220	-0.0000	0.0728	0.1014	-0.3455	-3.5623	-0.1074	0.1172
2224.0000	-0.0000	0.0160	-0.1427	3.1980	-0.2249	-2.6141	1.7187	-0.2155	3.1344	-0.0000	0.2835	0.0803	-0.2859	-3.9604	0.0450	0.1585
2232.0000	-0.0000	-0.0026	-0.1327	3.6304	-0.1192	-2.5689	2.0480	-0.1537	3.5980	-0.0000	0.5160	0.0596	-0.2217	-4.4027	0.2114	0.1925
2240.0000	-0.0000	0.0022	-0.1230	3.9396	-0.0164	-2.4187	2.3347	-0.1086	3.9703	-0.0000	0.7592	0.0446	-0.1549	-4.7600	0.3802	0.2013
2248.0000	-0.0000	0.0194	-0.1137	4.0996	0.0786	-2.1437	2.5633	-0.0610	4.1585	-0.0000	0.9937	0.0409	-0.0908	-4.8236	0.5364	0.1960
2256.0000	-0.0000	0.0335	-0.1037	4.2575	0.1716	-1.8325	2.7804	-0.0038	4.2570	-0.0000	1.2103	0.0472	-0.0314	-4.5516	0.6770	0.1953
2264.0000	-0.0000	0.0358	-0.0904	4.5939	0.2786	-1.5625	3.0581	0.0583	4.4989	-0.0000	1.4272	0.0583	0.0327	-4.1383	0.8230	0.2027
2272.0000	-0.0000	0.0266	-0.0745	5.0956	0.4064	-1.3287	3.4084	0.1237	4.9825	-0.0000	1.6738	0.0733	0.1116	-3.7456	0.9969	0.2136
2280.0000	-0.0000	0.0135	-0.0586	5.5699	0.5421	-1.0851	3.7682	0.1966	5.5262	-0.0000	1.9517	0.0924	0.2022	-3.3376	1.1936	0.2279
2288.0000	-0.0000	0.0096	-0.0427	5.9160	0.6739	-0.8033	4.0914	0.2783	5.9221	-0.0000	2.2359	0.1139	0.2944	-2.8457	1.3908	0.2457
2296.0000	-0.0000	0.0239	-0.0257	6.2300	0.8065	-0.4827	4.4023	0.3653	6.2156	-0.0000	2.5136	0.1372	0.3862	-2.2944	1.5826	0.2651
2304.0000	-0.0000	0.0507	-0.0101	6.5661	0.9421	-0.1395	4.7176	0.4509	6.5490	-0.0000	2.7930	0.1640	0.4803	-1.7142	1.7775	0.2866
2312.0000	-0.0000	0.0750	0.0003	6.7656	1.0644	0.2016	4.9749	0.5275	6.8412	-0.0000	3.0698	0.1910	0.5722	-1.1065	1.9683	0.3105
2320.0000	-0.0000	0.0876	0.0071	6.6459	1.1561	0.5179	5.0924	0.5897	6.8520	-0.0000	3.3134	0.2132	0.6509	-0.5056	2.1281	0.3324
2328.0000	-0.0000	0.0896	0.0139	6.2207	1.2157	0.7942	5.0543	0.6344	6.4985	-0.0000	3.4926	0.2315	0.7092	0.0581	2.2367	0.3483
2336.0000	-0.0000	0.0837	0.0203	5.6103	1.2452	1.0185	4.8872	0.6585	5.9037	-0.0000	3.5961	0.2494	0.7467	0.6111	2.2906	0.3577
2344.0000	-0.0000	0.0709	0.0229	4.8453	1.2386	1.1861	4.5940	0.6609	5.1633	-0.0000	3.6219	0.2638	0.7627	1.1643	2.2904	0.3574
2352.0000	-0.0000	0.0573	0.0201	3.9002	1.1913	1.3097	4.1642	0.6497	4.2524	-0.0000	3.5631	0.2699	0.7527	1.6820	2.2310	0.3409
2360.0000	-0.0000	0.0513	0.0131	2.8671	1.1110	1.4117	3.6350	0.6414	3.1878	-0.0000	3.4147	0.2682	0.7134	2.1602	2.1103	0.3104
2368.0000	-0.0000	0.0527	0.0054	1.9787	1.0146	1.5008	3.1037	0.6448	2.1638	-0.0000	3.1953	0.2625	0.6523	2.6041	1.9459	0.2793
2376.0000	-0.0000	0.0503	0.0008	1.4304	0.9217	1.5728	2.6696	0.6546	1.4445	-0.0000	2.9518	0.2547	0.5880	2.9346	1.7759	0.2581
2384.0000	-0.0000	0.0351	0.0002	1.2133	0.8446	1.6342	2.3660	0.6619	1.1300	-0.0000	2.7322	0.2461	0.5373	3.0687	1.6350	0.2457
2392.0000	-0.0000	0.0108	0.0001	1.1471	0.7810	1.7053	2.1501	0.6648	1.0699	-0.0000	2.5524	0.2370	0.5036	3.0616	1.5292	0.2371
2400.0000	-0.0000	-0.0089	-0.0022	1.0674	0.7215	1.7921	1.9610	0.6652	1.0353	-0.0000	2.3992	0.2261	0.4801	3.0382	1.4415	0.2307
2408.0000	-0.0000	-0.0100	-0.0051	0.9437	0.6628	1.8810	1.7766	0.6647	0.9318	-0.0000	2.2567	0.2146	0.4606	3.0435	1.3578	0.2264
2416.0000	-0.0000	0.0101	-0.0058	0.8206	0.6075	1.9701	1.6067	0.6671	0.8022	-0.0000	2.1186	0.2066	0.4418	3.0634	1.2763	0.2223
2424.0000	-0.0000	0.0396	-0.0046	0.7260	0.5547	2.0825	1.4585	0.6756	0.6944	-0.0000	1.9833	0.2021	0.4223	3.1064	1.1990	0.2169
2432.0000	-0.0000	0.0623	-0.0032	0.6773	0.5051	2.2301	1.3367	0.6872	0.6231	-0.0000	1.8530	0.1990	0.4024	3.1908	1.1285	0.2079
2440.0000	-0.0000	0.0746	-0.0020	0.7046	0.4678	2.3807	1.2561	0.6945	0.6166	-0.0000	1.7368	0.2014	0.3840	3.3221	1.0712	0.1909
2448.0000	-0.0000	0.0838	-0.0002	0.8148	0.4525	2.4826	1.2268	0.6943	0.7005	-0.0000	1.6439	0.2155	0.3686	3.4990	1.0320	0.1644
2456.0000	-0.0000	0.0912	0.0025	0.9773	0.4580	2.5139	1.2422	0.6872	0.8552	-0.0000	1.5776	0.2375	0.3564	3.6800	1.0097	0.1376
2464.0000	-0.0000	0.0887	0.0060	1.1746	0.4761	2.4951	1.2940	0.6721	1.0495	-0.0000	1.5382	0.2559	0.3488	3.7914	1.0030	0.1243
2472.0000	-0.0000	0.0737	0.0103	1.4183	0.5028	2.4569	1.3836	0.6479	1.2840	-0.0000	1.5265	0.2662	0.3487	3.8224	1.0129	0.1268
2480.0000	-0.0000	0.0558	0.0160	1.7157	0.5383	2.4059	1.5126	0.6183	1.5694	-0.0000	1.5431	0.2732	0.3589	3.8324	1.0405	0.1347
2488.0000	-0.0000	0.0450	0.0234	2.0626	0.5830	2.3268	1.6804	0.5891	1.9052	-0.0000	1.5902	0.2802	0.3811	3.8312	1.0873	0.1398
2496.0000	-0.0000	0.0444	0.0309	2.4553	0.6373	2.2121	1.8879	0.5630	2.2925	-0.0000	1.6704	0.2850	0.4145	3.7655	1.1552	0.1431
2504.0000	-0.0000	0.0544	0.0371	2.8691	0.7015	2.0779	2.1263	0.5411	2.7183	-0.0000	1.7806	0.2863	0.4555	3.6386	1.2422	0.1481
2512.0000	-0.0000	0.0724	0.0429	3.2514	0.7733	1.9449	2.3726	0.5241	3.1331	-0.0000	1.9124	0.2847	0.5005	3.5187	1.3412	0.1558
2520.0000	-0.0000	0.0869	0.0495	3.5645	0.8476	1.8201	2.6064	0.5116	3.4861	-0.0000	2.0578	0.2800	0.5466	3.4258	1.4460	0.1666
2528.0000	-0.0000	0.0854	0.0559	3.8011	0.9191	1.7047	2.8188	0.5018	3.7625	-0.0000	2.2087	0.2708	0.5901	3.3250	1.5521	0.1799
2536.0000	-0.0000	0.0661	0.0614	3.9483	0.9829	1.6021	2.9963	0.4936	3.9556	-0.0000	2.3550	0.2576	0.6286	3.2212	1.6527	0.1925
2544.0000	-0.0000	0.0372	0.0672	3.9888	1.0356	1.5052	3.1221	0.4838	4.0419	-0.0000	2.4872	0.2440	0.6622	3.1632	1.7417	0.2043
2552.0000	-0.0000	0.0074	0.0725	3.9534	1.0767	1.3957	3.1991	0.4664	4.0247	-0.0000	2.5993	0.2333	0.6913	3.1647	1.8164	0.2167
2560.0000	-0.0000	-0.0169	0.0748	3.9253	1.1123	1.2724	3.2561	0.4397	3.9697	-0.0000	2.6889	0.2263	0.7153	3.1842	1.8767	0.2263
2568.0000	-0.0000	-0.0297	0.0754	3.9693	1.1538	1.1606	3.3246	0.4127	3.9644	-0.0000	2.7637	0.2220	0.7382	3.1688	1.9285	0.2304
2576.0000	-0.0000	-0.0299	0.0787	4.0704	1.2075	1.0815	3.4133	0.3958	4.0434	-0.0000	2.8404	0.2196	0.7682	3.0951	1.9848	0.2366
2584.0000	-0.0000	-0.0243	0.0844	4.1456	1.2670	1.0318	3.4999	0.3878	4.1495	-0.0000	2.9256	0.2196	0.8057	2.9937	2.0504	0.2521
2592.0000	-0.0000	-0.0200	0.0877	4.1259	1.3204	1.0100	3.5512	0.3822	4.1795	-0.0000	3.0033	0.2228	0.8408	2.9346	2.1118	0.2692
2600.0000	-0.0000	-0.0173	0.0883	4.0335	1.3655	1.0351	3.5624	0.3813	4.0984	-0.0000	3.0571	0.2302	0.8663	2.9598	2.1553	0.2806
2608.0000	-0.0000	-0.0145	0.0908	3.9521	1.4095	1.1213	3.5640	0.3936	3.9845	-0.0000	3.0919	0.2437	0.8856	3.0443	2.1873	0.2967
2616.0000	-0.0000	-0.0130	0.0967	3.9220	1.4551	1.2498	3.5791	0.4174	3.9254	-0.0000	3.1224	0.2632	0.9048	3.1365	2.2204	0.3221
2624.0000	-0.0000	-0.0163	0.1029	3.9204	1.4981	1.3800	3.6013	0.4415	3.9173	-0.0000	3.1531	0.2844	0.9242	3.2127	2.2557	0.3324
2632.0000	-0.0000	-0.0257	0.1074	3.9427	1.5380	1.4798	3.6280	0.4579	3.9273	-0.0000	3.1831	0.3018	0.9436	3.2801	2.2904	0.3054
2640.0000	-0.0000	-0.0399	0.1106	4.0176	1.5793	1.5369	3.6747	0.4672	3.9780	-0.0000	3.2175	0.3130	0.9650	3.3464	2.3293	0.2609
2648.0000	-0.0000	-0.0561	0.1134	4.1374	1.6241	1.5480	3.7448	0.4717	4.0905	-0.0000	3.2612	0.3172	0.9898	3.4002	2.3756	0.2369
2656.0000	-0.0000	-0.0683	0.1179	4.2683	1.6727	1.5043	3.8262	0.4711	4.2265	-0.0000	3.3130	0.3158	1.0182	3.4163	2.4274	0.2415
2664.0000	-0.0000	-0.0706	0.1264	4.4297	1.7286	1.3901	3.9273	0.4643	4.3698	-0.0000	3.3745	0.3120	1.0521	3.3819	2.4876	0.2559
2672.0000	-0.0000	-0.0638	0.1369	4.6607	1.7938	1.2006	4.0663	0.4499	4.5721	-0.0000	3.4522	0.3077	1.0933	3.2988	2.5633	0.2685
2680.0000	-0.0000	-0.0542	0.1449	4.9272	1.8643	0.9568	4.2315	0.4264	4.8435	-0.0000	3.5477	0.3010	1.1393	3.1513	2.6524	0.2802
2688.0000	-0.0000	-0.0466	0.1509	5.1766	1.9384	0.6931	4.4020	0.3974	5.1110	-0.0000	3.6558	0.2919	1.1870	2.9050	2.7476	0.2913
2696.0000	-0.0000	-0.0405	0.1592	5.4541	2.0234	0.4308	4.5961	0.3699	5.3630	-0.0000	3.7753	0.2854	1.2382	2.5552	2.8507	0.3019
2704.0000	-0.0000	-0.0367	0.1710	5.8276	2.1257	0.1772	4.8420	0.3480	5.6946	-0.0000	3.9162	0.2857	1.2987	2.1440	2.9714	0.3165
2712.0000	-0.0000	-0.0381	0.1841	6.2164	2.2386	-0.0553	5.1109	0.3329	6.1162	-0.0000	4.0856	0.2889	1.3697	1.7217	3.1117	0.3363
2720.0000	-0.0000	-0.0437	0.1980	6.4380	2.3469	-0.2473	5.3314	0.3263	6.4509	-0.0000	4.2698	0.2910	1.4453	1.3332	3.2585	0.3582
2728.0000	-0.0000	-0.0481	0.2122	6.4276	2.4384	-0.3903	5.4620	0.3279	6.5361	-0.0000	4.4369	0.2948	1.5164	1.0370	3.3905	0.3809
2736.0000	-0.0000	-0.0475	0.2240	6.2846	2.5106	-0.4905	5.5140	0.3322	6.4165	-0.0000	4.5629	0.3041	1.5770	0.8798	3.4925	0.4035
2744.0000	-0.0000	-0.0411	0.2320	6.1021	2.5675	-0.5533	5.5120	0.3360	6.2322	-0.0000	4.6472	0.3164	1.6263	0.8492	3.5660	0.4217
2752.0000	-0.0000	-0.0270	0.2401	5.8744	2.6145	-0.5779	5.4666	0.3446	6.0213	-0.0000	4.6985	0.3289	1.6664	0.8954	3.6198	0.4362
2760.0000	-0.0000	-0.0038	0.2517	5.5889	2.6540	-0.5641	5.3803	0.3634	5.7477	-0.0000	4.7180	0.3442	1.6999	0.9911	3.6566	0.4534
2768.0000	-0.0000	0.0245	0.2652	5.2830	2.6856	-0.5131	5.2603	0.3900	5.4309	-0.0000	4.7056	0.3654	1.7282	1.1363	3.6750	0.4715
2776.0000	-0.0000	0.0513	0.2774	4.9736	2.7087	-0.4234	5.1139	0.4189	5.1174	-0.0000	4.6665	0.3899	1.7492	1.3308	3.6783	0.4795
2784.0000	-0.0000	0.0741	0.2893	4.6268	2.7227	-0.2985	4.9394	0.4497	4.7886	-0.0000	4.6026	0.4142	1.7604	1.5737	3.6678	0.4765
2792.0000	-0.0000	0.0948	0.3034	4.2354	2.7275	-0.1581	4.7325	0.4825	4.4069	-0.0000	4.5109	0.4386	1.7636	1.8618	3.6402	0.4765
2800.0000	-0.0000	0.1157	0.3192	3.8431	2.7231	-0.0272	4.5010	0.5137	4.0015	-0.0000	4.3939	0.4637	1.7635	2.1669	3.5970	0.4883
2808.0000	-0.0000	0.1402	0.3344	3.4702	2.7098	0.0829	4.2590	0.5401	3.6194	-0.0000	4.2585	0.4871	1.7613	2.4450	3.5447	0.5067
2816.0000	-0.0000	0.1740	0.3490	3.0968	2.6879	0.1762	4.0096	0.5633	3.2506	-0.0000	4.1054	0.5083	1.7546	2.6793	3.4830	0.5245
2824.0000	-0.0000	0.2188	0.3637	2.7287	2.6604	0.2587	3.7515	0.5849	2.8763	-0.0000	3.9343	0.5301	1.7439	2.8860	3.4092	0.5404
2832.0000	-0.0000	0.2682	0.3775	2.3981	2.6312	0.3366	3.4947	0.6044	2.5250	-0.0000	3.7521	0.5534	1.7320	3.0750	3.3290	0.5534
2840.0000	-0.0000	0.3158	0.3896	2.1027	2.6021	0.4194	3.2496	0.6230	2.2168	-0.0000	3.5636	0.5752	1.7184	3.2410	3.2479	0.5625
2848.0000	-0.0000	0.3603	0.4010	1.8230	2.5723	0.5138	3.0135	0.6436	1.9296	-0.0000	3.3681	0.5950	1.7009	3.3846	3.1626	0.5701
2856.0000	-0.0000	0.3993	0.4124	1.5784	2.5422	0.6115	2.7888	0.6655	1.6632	-0.0000	3.1690	0.6157	1.6815	3.5116	3.0745	0.5800
2864.0000	-0.0000	0.4254	0.4213	1.3934	2.5130	0.6932	2.5886	0.6834	1.4536	-0.0000	2.9750	0.6368	1.6633	3.6180	2.9930	0.5912
2872.0000	-0.0000	0.4348	0.4258	1.2459	2.4843	0.7449	2.4130	0.6938	1.2996	-0.0000	2.7871	0.6527	1.6446	3.6970	2.9183	0.6001
2880.0000	-0.0000	0.4334	0.4284	1.1125	2.4566	0.7683	2.2506	0.6991	1.1632	-0.0000	2.6019	0.6624	1.6240	3.7500	2.8434	0.6066
2888.0000	-0.0000	0.4295	0.4320	1.0132	2.4326	0.7744	2.1063	0.7026	1.0466	-0.0000	2.4248	0.6709	1.6055	3.7735	2.7726	0.6136
2896.0000	-0.0000	0.4268	0.4357	0.9646	2.4130	0.7706	1.9934	0.7053	0.9803	-0.0000	2.2628	0.6805	1.5921	3.7617	2.7149	0.6216
2904.0000	-0.0000	0.4282	0.4385	0.9517	2.3958	0.7571	1.9079	0.7073	0.9593	-0.0000	2.1145	0.6884	1.5820	3.7302	2.6665	0.6291
2912.0000	-0.0000	0.4381	0.4422	0.9689	2.3830	0.7350	1.8426	0.7104	0.9650	-0.0000	1.9797	0.6929	1.5740	3.7031	2.6242	0.6365
2920.0000	-0.0000	0.4559	0.4473	1.0205	2.3774	0.7108	1.8044	0.7160	1.0069	-0.0000	1.8648	0.6958	1.5715	3.6722	2.5964	0.6460
2928.0000	-0.0000	0.4744	0.4508	1.0789	2.3765	0.6913	1.7887	0.7219	1.0787	-0.0000	1.7681	0.6972	1.5744	3.6086	2.5835	0.6573
2936.0000	-0.0000	0.4878	0.4519	1.1099	2.3771	0.6756	1.7743	0.7261	1.1350	-0.0000	1.6795	0.6962	1.5783	3.5149	2.5730	0.6676
2944.0000	-0.0000	0.4958	0.4541	1.1237	2.3835	0.6590	1.7582	0.7297	1.1562	-0.0000	1.5967	0.6958	1.5834	3.4213	2.5627	0.6764
2952.0000	-0.0000	0.4978	0.4600	1.1458	2.4015	0.6412	1.7557	0.7346	1.1731	-0.0000	1.5247	0.7002	1.5949	3.3376	2.5621	0.6866
2960.0000	-0.0000	0.4912	0.4672	1.1733	2.4276	0.6274	1.7636	0.7408	1.2062	-0.0000	1.4627	0.7093	1.6137	3.2568	2.5698	0.6991
2968.0000	-0.0000	0.4776	0.4729	1.1950	2.4551	0.6216	1.7668	0.7468	1.2413	-0.0000	1.4056	0.7196	1.6349	3.1899	2.5780	0.7112
2976.0000	-0.0000	0.4635	0.4772	1.2106	2.4818	0.6211	1.7681	0.7530	1.2651	-0.0000	1.3524	0.7289	1.6557	3.1499	2.5888	0.7211
2984.0000	-0.0000	0.4545	0.4813	1.2202	2.5076	0.6192	1.7746	0.7599	1.2778	-0.0000	1.3021	0.7365	1.6764	3.1247	2.6040	0.7305
2992.0000	-0.0000	0.4524	0.4854	1.2294	2.5317	0.6157	1.7805	0.7680	1.2876	-0.0000	1.2527	0.7423	1.6978	3.1022	2.6187	0.7418
3000.0000	-0.0000	0.4571	0.4900	1.2476	2.5559	0.6227	1.7859	0.7787	1.3074	-0.0000	1.2076	0.7464	1.7210	3.0925	2.6354	0.7551
3008.0000	-0.0000	0.4658	0.4946	1.2615	2.5828	0.6551	1.7976	0.7942	1.3317	-0.0000	1.1690	0.7499	1.7469	3.1012	2.6602	0.7703
3016.0000	-0.0000	0.4734	0.4987	1.2529	2.6127	0.7167	1.8089	0.8156	1.3349	-0.0000	1.1303	0.7538	1.7746	3.1190	2.6862	0.7874
3024.0000	-0.0000	0.4746	0.5026	1.2424	2.6469	0.8035	1.8145	0.8433	1.3222	-0.0000	1.0886	0.7588	1.8037	3.1464	2.7074	0.8062
3032.0000	-0.0000	0.4659	0.5071	1.2553	2.6890	0.9141	1.8280	0.8779	1.3288	-0.0000	1.0505	0.7644	1.8360	3.1898	2.7330	0.8274
3040.0000	-0.0000	0.4450	0.5119	1.2805	2.7390	1.0451	1.8568	0.9185	1.3558	-0.0000	1.0182	0.7690	1.8730	3.2380	2.7674	0.8514
3048.0000	-0.0000	0.4133	0.5172	1.3255	2.7947	1.1830	1.8954	0.9630	1.3896	-0.0000	0.9885	0.7724	1.9138	3.2772	2.8030	0.8781
3056.0000	-0.0000	0.3757	0.5233	1.4373	2.8571	1.3126	1.9558	1.0093	1.4697	-0.0000	0.9687	0.7765	1.9590	3.3063	2.8446	0.9072
3064.0000	-0.0000	0.3368	0.5290	1.6165	2.9260	1.4278	2.0543	1.0552	1.6333	-0.0000	0.9698	0.7811	2.0107	3.3162	2.9062	0.9386
3072.0000	-0.0000	0.2996	0.5315	1.8106	2.9951	1.5260	2.1764	1.0972	1.8375	-0.0000	0.9883	0.7831	2.0664	3.2870	2.9819	0.9705
3080.0000	-0.0000	0.2663	0.5308	2.0136	3.0621	1.6012	2.3054	1.1329	2.0411	-0.0000	1.0176	0.7814	2.1223	3.2136	3.0601	1.0004
3088.0000	-0.0000	0.2372	0.5292	2.2472	3.1321	1.6516	2.4521	1.1628	2.2701	-0.0000	1.0627	0.7783	2.1800	3.0989	3.1488	1.0284
3096.0000	-0.0000	0.2079	0.5276	2.4666	3.2054	1.6852	2.6134	1.1884	2.5161	-0.0000	1.1250	0.7757	2.2414	2.9373	3.2530	1.0562
3104.0000	-0.0000	0.1750	0.5254	2.6269	3.2769	1.7136	2.7605	1.2110	2.7093	-0.0000	1.1923	0.7734	2.3041	2.7459	3.3571	1.0830
3112.0000	-0.0000	0.1391	0.5236	2.7746	3.3490	1.7500	2.8959	1.2348	2.8551	-0.0000	1.2605	0.7717	2.3678	2.5746	3.4571	1.1077
3120.0000	-0.0000	0.0996	0.5229	2.9431	3.4279	1.8087	3.0453	1.2642	3.0253	-0.0000	1.3374	0.7711	2.4374	2.4558	3.5679	1.1321
3128.0000	-0.0000	0.0544	0.5210	3.0712	3.5102	1.8950	3.1920	1.2992	3.1967	-0.0000	1.4198	0.7698	2.5132	2.3859	3.6859	1.1584
3136.0000	-0.0000	0.0082	0.5169	3.1313	3.5900	2.0028	3.3058	1.3369	3.2913	-0.0000	1.4948	0.7670	2.5890	2.3691	3.7935	1.1864
3144.0000	-0.0000	-0.0296	0.5127	3.1852	3.6725	2.1261	3.4064	1.3776	3.3376	-0.0000	1.5625	0.7654	2.6632	2.4203	3.8956	1.2160
3152.0000	-0.0000	-0.0583	0.5096	3.2510	3.7625	2.2631	3.5165	1.4229	3.4040	-0.0000	1.6297	0.7680	2.7406	2.5337	4.0038	1.2489
3160.0000	-0.0000	-0.0855	0.5061	3.2900	3.8553	2.4056	3.6148	1.4705	3.4666	-0.0000	1.6931	0.7739	2.8208	2.7011	4.1085	1.2850
3168.0000	-0.0000	-0.1144	0.5026	3.3263	3.9495	2.5400	3.6979	1.5180	3.5019	-0.0000	1.7507	0.7807	2.9009	2.9313	4.2050	1.3234
3176.0000	-0.0000	-0.1408	0.5018	3.4045	4.0520	2.6584	3.7991	1.5660	3.5639	-0.0000	1.8109	0.7879	2.9835	3.2141	4.3093	1.3639
3184.0000	-0.0000	-0.1621	0.5053	3.4931	4.1632	2.7550	3.9167	1.6143	3.6649	-0.0000	1.8768	0.7964	3.0734	3.5177	4.4235	1.4064
3192.0000	-0.0000	-0.1787	0.5123	3.5739	4.2787	2.8197	4.0256	1.6607	3.7567	-0.0000	1.9450	0.8067	3.1697	3.8313	4.5353	1.4493
3200.0000	-0.0000	-0.1908	0.5223	3.6995	4.4017	2.8519	4.1453	1.7052	3.8623	-0.0000	2.0208	0.8180	3.2724	4.1469	4.6527	1.4925
3208.0000	-0.0000	-0.1978	0.5341	3.8602	4.5333	2.8664	4.2938	1.7493	4.0264	-0.0000	2.1106	0.8291	3.3834	4.4271	4.7878	1.5370
3216.0000	-0.0000	-0.1972	0.5461	3.9721	4.6643	2.8769	4.4313	1.7921	4.1840	-0.0000	2.2052	0.8414	3.4994	4.6619	4.9257	1.5819
3224.0000	-0.0000	-0.1834	0.5583	4.0363	4.7910	2.8887	4.5374	1.8329	4.2696	-0.0000	2.2944	0.8583	3.6140	4.8956	5.0536	1.6255
3232.0000	-0.0000	-0.1554	0.5717	4.1136	4.9222	2.9107	4.6477	1.8754	4.3366	-0.0000	2.3816	0.8807	3.7290	5.1389	5.1848	1.6698
3240.0000	-0.0000	-0.1200	0.5859	4.1802	5.0590	2.9529	4.7649	1.9230	4.4213	-0.0000	2.4688	0.9065	3.8491	5.3459	5.3224	1.7167
3248.0000	-0.0000	-0.0824	0.6005	4.1980	5.1932	3.0139	4.8530	1.9746	4.4694	-0.0000	2.5494	0.9371	3.9716	5.5033	5.4503	1.7658
3256.0000	-0.0000	-0.0422	0.6171	4.2202	5.3264	3.0915	4.9278	2.0299	4.4828	-0.0000	2.6243	0.9761	4.0928	5.6297	5.5731	1.8170
3264.0000	-0.0000	-0.0049	0.6367	4.2799	5.4669	3.1922	5.0265	2.0919	4.5277	-0.0000	2.6997	1.0223	4.2167	5.7040	5.7054	1.8728
3272.0000	-0.0000	0.0180	0.6577	4.3494	5.6142	3.3086	5.1338	2.1608	4.6005	-0.0000	2.7739	1.0718	4.3466	5.7134	5.8387	1.9335
3280.0000	-0.0000	0.0236	0.6787	4.4673	5.7669	3.4178	5.2459	2.2335	4.6913	-0.0000	2.8493	1.1235	4.4810	5.7031	5.9689	1.9970
3288.0000	-0.0000	0.0147	0.6986	4.6819	5.9274	3.5181	5.4022	2.3096	4.8677	-0.0000	2.9394	1.1747	4.6201	5.6807	6.1167	2.0635
3296.0000	-0.0000	-0.0127	0.7129	4.9088	6.0866	3.6284	5.5891	2.3886	5.1178	-0.0000	3.0446	1.2178	4.7631	5.5966	6.2827	2.1324
3304.0000	-0.0000	-0.0594	0.7177	5.1068	6.2322	3.7341	5.7627	2.4629	5.3353	-0.0000	3.1497	1.2522	4.9019	5.4752	6.4415	2.2009
3312.0000	-0.0000	-0.1123	0.7157	5.4514	6.3780	3.7915	5.9833	2.5268	5.5881	-0.0000	3.2612	1.2849	5.0348	5.3718	6.6025	2.2689
3320.0000	-0.0000	-0.1653	0.7104	6.0615	6.5510	3.8047	6.3407	2.5885	6.0885	-0.0000	3.4123	1.3113	5.1770	5.2043	6.8030	2.3398
3328.0000	-0.0000	-0.2334	0.6984	6.7602	6.7492	3.8330	6.7830	2.6604	6.8146	-0.0000	3.6202	1.3139	5.3396	4.8830	7.0441	2.4120
3336.0000	-0.0000	-0.3263	0.6765	7.3312	6.9477	3.9026	7.2011	2.7393	7.5014	-0.0000	3.8678	1.2930	5.5128	4.5597	7.3000	2.4794
3344.0000	-0.0000	-0.4291	0.6508	7.7602	7.1390	3.9801	7.5853	2.8117	8.0104	-0.0000	4.1300	1.2749	5.6826	4.4751	7.5633	2.5412
3352.0000	-0.0000	-0.5247	0.6311	8.0888	7.3329	4.0527	7.9517	2.8770	8.3915	-0.0000	4.3917	1.2786	5.8496	4.6537	7.8288	2.6029
3360.0000	-0.0000	-0.6111	0.6222	8.3104	7.5334	4.1637	8.2639	2.9497	8.6717	-0.0000	4.6470	1.2983	6.0216	4.9842	8.0805	2.6676
3368.0000	-0.0000	-0.6819	0.6249	8.4631	7.7388	4.3452	8.5249	3.0393	8.8567	-0.0000	4.8990	1.3259	6.2022	5.4224	8.3247	2.7383
3376.0000	-0.0000	-0.7174	0.6418	8.5735	7.9502	4.5776	8.7735	3.1427	8.9936	-0.0000	5.1498	1.3672	6.3931	5.9118	8.5778	2.8212
3384.0000	-0.0000	-0.7067	0.6743	8.5662	8.1642	4.8322	8.9715	3.2553	9.0590	-0.0000	5.3882	1.4271	6.5948	6.3380	8.8227	2.9179
3392.0000	-0.0000	-0.6558	0.7197	8.4073	8.3738	5.1009	9.0674	3.3770	8.9723	-0.0000	5.5998	1.5013	6.8018	6.7139	9.0386	3.0225
3400.0000	-0.0000	-0.5764	0.7730	8.1802	8.5768	5.3719	9.1054	3.5046	8.7623	-0.0000	5.7785	1.5852	7.0083	7.1720	9.2374	3.1292
3408.0000	-0.0000	-0.4840	0.8299	7.9358	8.7741	5.6230	9.1262	3.6323	8.5197	-0.0000	5.9192	1.6770	7.2125	7.7292	9.4229	3.2363
3416.0000	-0.0000	-0.3988	0.8884	7.6822	8.9671	5.8443	9.1036	3.7596	8.2659	-0.0000	6.0195	1.7709	7.4142	8.3018	9.5772	3.3415
3424.0000	-0.0000	-0.3306	0.9473	7.4957	9.1618	6.0365	9.0674	3.8893	8.0369	-0.0000	6.0955	1.8611	7.6145	8.8816	9.7142	3.4428
3432.0000	-0.0000	-0.2732	1.0048	7.4183	9.3617	6.1951	9.0912	4.0183	7.9151	-0.0000	6.1661	1.9479	7.8176	9.4612	9.8659	3.5431
3440.0000	-0.0000	-0.2191	1.0596	7.3636	9.5597	6.3267	9.1435	4.1411	7.8788	-0.0000	6.2285	2.0321	8.0265	9.9360	10.0251	3.6460
3448.0000	-0.0000	-0.1628	1.1124	7.2440	9.7470	6.4599	9.1436	4.2564	7.8226	-0.0000	6.2844	2.1114	8.2392	10.2729	10.1766	3.7532
3456.0000	-0.0000	-0.0957	1.1639	6.9544	9.9104	6.6079	9.0686	4.3612	7.6592	-0.0000	6.3740	2.1837	8.4474	10.5681	10.3293	3.8641
3464.0000	-0.0000	-0.0207	1.2110	6.2654	10.0244	6.7433	8.8476	4.4481	7.2082	-0.0000	6.5439	2.2468	8.6318	10.8280	10.4529	3.9716
3472.0000	-0.0000	0.0315	1.2499	5.0844	10.0748	6.8369	8.3630	4.5148	6.2529	-0.0000	6.7983	2.2953	8.7716	10.9386	10.4797	4.0610
3480.0000	-0.0000	0.0326	1.2791	3.6521	10.0785	6.8945	7.6517	4.5642	4.8824	-0.0000	7.1057	2.3259	8.8675	10.8692	10.4074	4.1233
3488.0000	-0.0000	-0.0030	1.2979	2.1541	10.0449	6.9323	6.8391	4.5907	3.3864	-0.0000	7.4265	2.3390	8.9357	10.6611	10.2780	4.1618
3496.0000	-0.0000	-0.0311	1.3073	0.5432	9.9568	6.9475	5.9182	4.5868	1.8152	-0.0000	7.7230	2.3342	8.9781	10.2989	10.0752	4.1825
3504.0000	-0.0000	-0.0246	1.3146	-1.0298	9.8216	6.9346	4.8926	4.5622	0.1661	-0.0000	7.9797	2.3141	8.9893	9.7976	9.7842	4.1893
3512.0000	-0.0000	0.0079	1.3273	-2.2876	9.6797	6.9000	3.9190	4.5357	-1.2739	-0.0000	8.2114	2.2897	8.9845	9.2471	9.4728	4.1906
3520.0000	-0.0000	0.0432	1.3431	-3.3761	9.5423	6.8511	3.0341	4.5118	-2.3991	-0.0000	8.4229	2.2688	8.9804	8.6452	9.1741	4.1909
3528.0000	-0.0000	0.0671	1.3572	-4.4323	9.4046	6.8052	2.1421	4.4912	-3.4891	-0.0000	8.5907	2.2481	8.9701	7.9336	8.8318	4.1850
3536.0000	-0.0000	0.0767	1.3730	-4.9470	9.3110	6.7988	1.4083	4.4897	-4.3555	-0.0000	8.7133	2.2292	8.9609	7.2180	8.4725	4.1767
3544.0000	-0.0000	0.0701	1.3909	-4.8185	9.2816	6.8500	1.0111	4.5109	-4.4348	-0.0000	8.8187	2.2224	8.9869	6.6366	8.2111	4.1840
3552.0000	-0.0000	0.0465	1.3991	-5.2557	9.2166	6.9274	0.5442	4.5244	-4.3202	-0.0000	8.8913	2.2237	9.0339	6.0761	8.0036	4.2035
3560.0000	-0.0000	0.0196	1.3939	-6.9193	9.0305	7.0042	-0.4211	4.5090	-5.4063	-0.0000	8.8711	2.2151	9.0294	5.3516	7.6722	4.2057
3568.0000	-0.0000	0.0134	1.3936	-8.3219	8.8171	7.1122	-1.4172	4.4929	-7.3039	-0.0000	8.7639	2.1978	8.9630	4.5440	7.2268	4.1876
3576.0000	-0.0000	0.0303	1.4091	-8.2458	8.6980	7.2832	-1.8562	4.5057	-8.0025	-0.0000	8.6609	2.1935	8.9184	3.8700	6.8592	4.1843
3584.0000	-0.0000	0.0425	1.4212	-8.3357	8.5972	7.4758	-2.2578	4.5229	-7.5075	-0.0000	8.6043	2.2032	8.9235	3.3831	6.5986	4.2053
3592.0000	-0.0000	0.0286	1.4085	-10.6799	8.3462	7.6166	-3.4585	4.4999	-8.4710	-0.0000	8.5139	2.1993	8.8839	2.9845	6.2528	4.2105
3600.0000	-0.0000	-0.0033	1.3734	-14.1888	7.9016	7.6729	-5.3366	4.4244	-11.9680	-0.0000	8.2835	2.1643	8.7138	2.5351	5.6615	4.1660
3608.0000	-0.0000	-0.0404	1.3238	-16.1175	7.2931	7.6313	-7.6136	4.2985	-15.5313	-0.0000	7.8768	2.0995	8.4161	1.8855	4.7781	4.0716
3616.0000	-0.0000	-0.0814	1.2531	-15.9759	6.4926	7.4534	-10.7761	4.1088	-16.7794	-0.0000	7.3005	1.9984	7.9970	0.9522	3.5836	3.9253
3624.0000	-0.0000	-0.1206	1.1573	-15.3776	5.4829	7.1078	-14.7054	3.8477	-16.3386	-0.0000	6.5524	1.8495	7.4272	-0.2966	2.0922	3.7155
3632.0000	-0.0000	-0.1477	1.0461	-15.1435	4.3240	6.6061	-17.7024	3.5291	-15.8775	-0.0000	5.6309	1.6606	6.7127	-1.9720	0.3502	3.4503
3640.0000	-0.0000	-0.1691	0.9280	-14.8605	3.0590	5.9753	-18.4703	3.1635	-15.6615	-0.0000	4.5501	1.4467	5.8956	-4.1295	-1.6248	3.1480
3648.0000	-0.0000	-0.2000	0.8045	-14.4104	1.6914	5.2382	-17.8639	2.7522	-15.2751	-0.0000	3.3233	1.2047	4.9914	-6.5708	-3.7952	2.8098
3656.0000	-0.0000	-0.2380	0.6827	-14.0879	0.2862	4.4374	-17.3691	2.3130	-14.8470	-0.0000	1.9644	0.9319	4.0134	-9.1724	-6.0475	2.4397
3664.0000	-0.0000	-0.2710	0.5724	-13.8271	-1.0545	3.6353	-17.1617	1.8762	-14.5660	-0.0000	0.5192	0.6526	3.0227	-12.1278	-8.2928	2.0642
3672.0000	-0.0000	-0.2983	0.4721	-13.4481	-2.3090	2.8780	-16.7650	1.4579	-14.2477	-0.0000	-0.9393	0.3985	2.0762	-15.2591	-10.4896	1.7042
3680.0000	-0.0000	-0.3207	0.3760	-13.0844	-3.5046	2.1899	-16.2814	1.0623	-13.8428	-0.0000	-2.3627	0.1771	1.1764	-17.5466	-12.5358	1.3564
3688.0000	-0.0000	-0.3277	0.2858	-12.8170	-4.6242	1.5896	-15.9684	0.6971	-13.5169	-0.0000	-3.7499	-0.0206	0.3182	-18.1915	-14.3779	1.0203
3696.0000	-0.0000	-0.3167	0.2037	-12.5014	-5.6458	1.0839	-15.6545	0.3646	-13.2329	-0.0000	-5.1080	-0.1960	-0.4816	-17.7237	-16.1569	0.7067
3704.0000	-0.0000	-0.3042	0.1265	-12.1348	-6.5921	0.6628	-15.2202	0.0568	-12.8722	-0.0000	-6.4285	-0.3432	-1.2224	-17.2251	-17.8701	0.4153
3712.0000	-0.0000	-0.3049	0.0536	-11.8405	-7.4726	0.3144	-14.8439	-0.2256	-12.5195	-0.0000	-7.7108	-0.4610	-1.9190	-16.9700	-19.0478	0.1379
3720.0000	-0.0000	-0.3208	-0.0111	-11.5671	-8.2584	0.0261	-14.5484	-0.4728	-12.2376	-0.0000	-8.9557	-0.5558	-2.5624	-16.6250	-19.2677	-0.1198
3728.0000	-0.0000	-0.3508	-0.0659	-11.2302	-8.9275	-0.2220	-14.1803	-0.6805	-11.9262	-0.0000	-10.1224	-0.6347	-3.1306	-16.1747	-18.8181	-0.3464
3736.0000	-0.0000	-0.3902	-0.1098	-10.9114	-9.4621	-0.4360	-13.7832	-0.8450	-11.5747	-0.0000	-11.1541	-0.6982	-3.6090	-15.8311	-18.3331	-0.5390
3744.0000	-0.0000	-0.4246	-0.1400	-10.6499	-9.8462	-0.5984	-13.4681	-0.9591	-11.2758	-0.0000	-12.0532	-0.7409	-3.9785	-15.5289	-17.9991	-0.6930
3752.0000	-0.0000	-0.4398	-0.1607	-10.3569	-10.1259	-0.7002	-13.1529	-1.0303	-10.9989	-0.0000	-12.8570	-0.7632	-4.2398	-15.1369	-17.6203	-0.8049
3760.0000	-0.0000	-0.4312	-0.1802	-10.0349	-10.3764	-0.7539	-12.7757	-1.0795	-10.6745	-0.0000	-13.5563	-0.7744	-4.4444	-14.7542	-17.1739	-0.8878
3768.0000	-0.0000	-0.3989	-0.1970	-9.7631	-10.5884	-0.7707	-12.4333	-1.1105	-10.3603	-0.0000	-14.1414	-0.7791	-4.6296	-14.4471	-16.7904	-0.9551
3776.0000	-0.0000	-0.3515	-0.2057	-9.5055	-10.7158	-0.7675	-12.1403	-1.1158	-10.0941	-0.0000	-14.6752	-0.7747	-4.7662	-14.1102	-16.4392	-1.0008
3784.0000	-0.0000	-0.3110	-0.2112	-9.2057	-10.8019	-0.7814	-11.8056	-1.1085	-9.8077	-0.0000	-15.1741	-0.7671	-4.8405	-13.7293	-16.0353	-1.0245
3792.0000	-0.0000	-0.2928	-0.2178	-8.9202	-10.8914	-0.8169	-11.4535	-1.1021	-9.4957	-0.0000	-15.4746	-0.7664	-4.8997	-13.3989	-15.6341	-1.0447
3800.0000	-0.0000	-0.2904	-0.2183	-8.6770	-10.9204	-0.8190	-11.1557	-1.0805	-9.2228	-0.0000	-15.4092	-0.7665	-4.9483	-13.0943	-15.2825	-1.0604
3808.0000	-0.0000	-0.2949	-0.2153	-8.4123	-10.8901	-0.7735	-10.8609	-1.0421	-8.9666	-0.0000	-15.0648	-0.7561	-4.9362	-12.7437	-14.9176	-1.0518
3816.0000	-0.0000	-0.3077	-0.2309	-8.1274	-10.9918	-0.7689	-10.5256	-1.0396	-8.6771	-0.0000	-14.6817	-0.7498	-4.9164	-12.3972	-14.5246	-1.0412
3824.0000	-0.0000	-0.3180	-0.2711	-7.8806	-11.3333	-0.8695	-10.2142	-1.1074	-8.3962	-0.0000	-14.3561	-0.7712	-5.0355	-12.0983	-14.1628	-1.0840
3832.0000	-0.0000	-0.3000	-0.3080	-7.6464	-11.7197	-0.9989	-9.9401	-1.1931	-8.1525	-0.0000	-14.0263	-0.8098	-5.2969	-11.7852	-13.8218	-1.1769
3840.0000	-0.0000	-0.2527	-0.3188	-7.3813	-11.9212	-1.0490	-9.6388	-1.2270	-7.8952	-0.0000	-13.6715	-0.8308	-5.5228	-11.4440	-13.4545	-1.2496
3848.0000	-0.0000	-0.2069	-0.3143	-7.1275	-11.9659	-1.0237	-9.3249	-1.2126	-7.6192	-0.0000	-13.3364	-0.8244	-5.6061	-11.1358	-13.0886	-1.2653
3856.0000	-0.0000	-0.1841	-0.3111	-6.9076	-11.9930	-0.9844	-9.0516	-1.1883	-7.3740	-0.0000	-13.0193	-0.8088	-5.6156	-10.8486	-12.7550	-1.2552
3864.0000	-0.0000	-0.1782	-0.3071	-6.6731	-12.0248	-0.9399	-8.7837	-1.1575	-7.1434	-0.0000	-12.6884	-0.7907	-5.6259	-10.5322	-12.4167	-1.2455
3872.0000	-0.0000	-0.1800	-0.2993	-6.4229	-12.0344	-0.8764	-8.4863	-1.1104	-6.8881	-0.0000	-12.3565	-0.7595	-5.6259	-10.2177	-12.0611	-1.2281
3880.0000	-0.0000	-0.1850	-0.2937	-6.2030	-12.0489	-0.8155	-8.2068	-1.0606	-6.6397	-0.0000	-12.0444	-0.7143	-5.6091	-9.9387	-11.7266	-1.2020
3888.0000	-0.0000	-0.1823	-0.2896	-5.9952	-12.0798	-0.7722	-7.9579	-1.0158	-6.4219	-0.0000	-11.7339	-0.6686	-5.5995	-9.6528	-11.4095	-1.1798
3896.0000	-0.0000	-0.1637	-0.2788	-5.7639	-12.0940	-0.7257	-7.6905	-0.9624	-6.1952	-0.0000	-11.4148	-0.6308	-5.5884	-9.3467	-11.0763	-1.1565
3904.0000	-0.0000	-0.1369	-0.2621	-5.5412	-12.0861	-0.6714	-7.4129	-0.8982	-5.9537	-0.0000	-11.1063	-0.5979	-5.5514	-9.0649	-10.7441	-1.1194
3912.0000	-0.0000	-0.1108	-0.2458	-5.3471	-12.0746	-0.6371	-7.1676	-0.8371	-5.7372	-0.0000	-10.8100	-0.5650	-5.4985	-8.8017	-10.4367	-1.0747
3920.0000	-0.0000	-0.0839	-0.2277	-5.1429	-12.0502	-0.6320	-6.9292	-0.7775	-5.5343	-0.0000	-10.5087	-0.5304	-5.4417	-8.5184	-10.1289	-1.0308
3928.0000	-0.0000	-0.0555	-0.2037	-4.9260	-12.0052	-0.6414	-6.6685	-0.7094	-5.3125	-0.0000	-10.2077	-0.4944	-5.3665	-8.2361	-9.8090	-0.9822
3936.0000	-0.0000	-0.0293	-0.1776	-4.7339	-11.9521	-0.6690	-6.4215	-0.6393	-5.0960	-0.0000	-9.9203	-0.4575	-5.2715	-7.9823	-9.5053	-0.9265
3944.0000	-0.0000	-0.0023	-0.1527	-4.5536	-11.8842	-0.7377	-6.2006	-0.5770	-4.9056	-0.0000	-9.6366	-0.4185	-5.1738	-7.7262	-9.2170	-0.8711
3952.0000	-0.0000	0.0296	-0.1261	-4.3549	-11.7955	-0.8749	-5.9670	-0.5229	-4.7095	-0.0000	-9.3487	-0.3769	-5.0707	-7.4546	-8.9184	-0.8159
3960.0000	-0.0000	0.0604	-0.0987	-4.1627	-11.7164	-1.1239	-5.7249	-0.4860	-4.5014	-0.0000	-9.0686	-0.3350	-4.9534	-7.2021	-8.6207	-0.7579
3968.0000	-0.0000	0.0844	-0.0740	-3.9951	-11.6368	-1.5098	-5.5093	-0.4762	-4.3139	-0.0000	-8.7989	-0.2905	-4.8366	-6.9666	-8.3434	-0.7040
3976.0000	-0.0000	0.1061	-0.0497	-3.8210	-11.4660	-1.9650	-5.3016	-0.4722	-4.1394	-0.0000	-8.5276	-0.2339	-4.7293	-6.7168	-8.0681	-0.6573
3984.0000	-0.0000	0.1268	-0.0241	-3.6360	-11.1640	-2.3616	-5.0764	-0.4480	-3.9500	-0.0000	-8.2573	-0.1637	-4.6210	-6.4674	-7.7841	-0.6079
3992.0000	-0.0000	0.1386	-0.0081	-3.4714	-10.8176	-2.6440	-4.8618	-0.4248	-3.7645	-0.0000	-7.9979	-0.0963	-4.5324	-6.2418	-7.5131	-0.5600
4000.0000	-0.0000	0.1400	-0.0125	-3.3182	-10.5066	-2.8416	-4.6701	-0.4448	-3.6014	-0.0000	-7.7431	-0.0487	-4.5243	-6.0166	-7.2563	-0.5410
4008.0000	-0.0000	0.1402	-0.0337	-3.1503	-10.2081	-2.9391	-4.4696	-0.5128	-3.4351	-0.0000	-7.4863	-0.0229	-4.6302	-5.7794	-6.9928	-0.5666
4016.0000	-0.0000	0.1422	-0.0616	-2.9870	-9.8923	-2.8558	-4.2617	-0.6174	-3.2585	-0.0000	-7.2359	-0.0161	-4.8287	-5.5574	-6.7301	-0.6234
4024.0000	-0.0000	0.1400	-0.0934	-2.8451	-9.5847	-2.6028	-4.0757	-0.7787	-3.0988	-0.0000	-6.9948	-0.0291	-5.0838	-5.3511	-6.4847	-0.6968
4032.0000	-0.0000	0.1317	-0.1292	-2.6991	-9.2966	-2.3497	-3.8983	-1.0119	-2.9514	-0.0000	-6.7540	-0.0573	-5.3704	-5.1345	-6.2429	-0.7882
4040.0000	-0.0000	0.1205	-0.1660	-2.5436	-9.0042	-2.2692	-3.7068	-1.2755	-2.7923	-0.0000	-6.5144	-0.0902	-5.6678	-4.9178	-5.9946	-0.8966
4048.0000	-0.0000	0.1090	-0.2007	-2.4053	-8.7081	-2.3912	-3.5236	-1.5098	-2.6359	-0.0000	-6.2842	-0.1261	-5.9629	-4.7214	-5.7572	-1.0103
4056.0000	-0.0000	0.0985	-0.2331	-2.2781	-8.4278	-2.6499	-3.3607	-1.7016	-2.4991	-0.0000	-6.0590	-0.1713	-6.2522	-4.5271	-5.5327	-1.1209
4064.0000	-0.0000	0.0882	-0.2621	-2.1391	-8.1547	-2.9915	-3.1920	-1.8702	-2.3611	-0.0000	-5.8332	-0.2260	-6.5299	-4.3232	-5.3042	-1.2269
4072.0000	-0.0000	0.0732	-0.2869	-2.0034	-7.8759	-3.3813	-3.0167	-2.0209	-2.2143	-0.0000	-5.6130	-0.2825	-6.7887	-4.1316	-5.0764	-1.3254
4080.0000	-0.0000	0.0539	-0.3093	-1.8866	-7.6041	-3.7768	-2.8600	-2.1479	-2.0817	-0.0000	-5.4013	-0.3350	-7.0279	-3.9545	-4.8636	-1.4133
4088.0000	-0.0000	0.0397	-0.3313	-1.7676	-7.3454	-4.1539	-2.7120	-2.2562	-1.9608	-0.0000	-5.1909	-0.3784	-7.2489	-3.7700	-4.6553	-1.4925
4096.0000	-0.0000	0.0347	-0.3521	-1.6403	-7.0861	-4.5246	-2.5528	-2.3540	-1.8307	-0.0000	-4.9822	-0.4071	-7.4542	-3.5851	-4.4423	-1.5666
4104.0000	-0.0000	0.0319	-0.3694	-1.5273	-6.8263	-4.8971	-2.4000	-2.4389	-1.7023	-0.0000	-4.7817	-0.4244	-7.6494	-3.4177	-4.2384	-1.6351
4112.0000	-0.0000	0.0281	-0.3813	-1.4249	-6.5786	-5.2490	-2.2652	-2.5047	-1.5910	-0.0000	-4.5864	-0.4423	-7.8264	-3.2536	-4.0465	-1.6928
4120.0000	-0.0000	0.0263	-0.3864	-1.3131	-6.3374	-5.5561	-2.1268	-2.5501	-1.4799	-0.0000	-4.3913	-0.4685	-7.9651	-3.0817	-3.8523	-1.7349
4128.0000	-0.0000	0.0224	-0.3886	-1.2035	-6.0938	-5.8154	-1.9825	-2.5788	-1.3611	-0.0000	-4.2013	-0.5009	-8.0694	-2.9200	-3.6589	-1.7634
4136.0000	-0.0000	0.0093	-0.3935	-1.1104	-5.8565	-6.0288	-1.8539	-2.5962	-1.2542	-0.0000	-4.0191	-0.5349	-8.1689	-2.7716	-3.4785	-1.7868
4144.0000	-0.0000	-0.0077	-0.4003	-1.0165	-5.6301	-6.1917	-1.7340	-2.6026	-1.1582	-0.0000	-3.8389	-0.5652	-8.2718	-2.6179	-3.3031	-1.8092
4152.0000	-0.0000	-0.0184	-0.4026	-0.9154	-5.4046	-6.3037	-1.6051	-2.5918	-1.0550	-0.0000	-3.6606	-0.5858	-8.3620	-2.4637	-3.1243	-1.8241
4160.0000	-0.0000	-0.0215	-0.4000	-0.8260	-5.1800	-6.3744	-1.4810	-2.5619	-0.9527	-0.0000	-3.4895	-0.5965	-8.4414	-2.3244	-2.9531	-1.8252
4168.0000	-0.0000	-0.0159	-0.3981	-0.7467	-4.9654	-6.4165	-1.3729	-2.5217	-0.8653	-0.0000	-3.3237	-0.6029	-8.5197	-2.1893	-2.7931	-1.8165
4176.0000	-0.0000	0.0062	-0.3977	-0.6598	-4.7571	-6.4416	-1.2628	-2.4787	-0.7790	-0.0000	-3.1587	-0.6057	-8.5842	-2.0477	-2.6320	-1.8034
4184.0000	-0.0000	0.0422	-0.3945	-0.5742	-4.5481	-6.4574	-1.1474	-2.4312	-0.6860	-0.0000	-2.9982	-0.6004	-8.6362	-1.9144	-2.4715	-1.7849
4192.0000	-0.0000	0.0729	-0.3887	-0.5028	-4.3448	-6.4662	-1.0451	-2.3784	-0.6027	-0.0000	-2.8449	-0.5876	-8.7040	-1.7933	-2.3224	-1.7605
4200.0000	-0.0000	0.0857	-0.3836	-0.4317	-4.1510	-6.4681	-0.9513	-2.3247	-0.5296	-0.0000	-2.6941	-0.5723	-8.7596	-1.6686	-2.1786	-1.7340
4208.0000	-0.0000	0.0855	-0.3786	-0.3541	-3.9590	-6.4612	-0.8502	-2.2686	-0.4506	-0.0000	-2.5451	-0.5532	-8.6995	-1.5429	-2.0323	-1.7061
4216.0000	-0.0000	0.0800	-0.3715	-0.2860	-3.7684	-6.4379	-0.7525	-2.2039	-0.3718	-0.0000	-2.4025	-0.5265	-8.4822	-1.4303	-1.8923	-1.6733
4224.0000	-0.0000	0.0731	-0.3632	-0.2272	-3.5866	-6.3939	-0.6689	-2.1308	-0.3058	-0.0000	-2.2651	-0.4953	-8.1975	-1.3222	-1.7625	-1.6353
4232.0000	-0.0000	0.0712	-0.3560	-0.1623	-3.4107	-6.3388	-0.5845	-2.0550	-0.2415	-0.0000	-2.1288	-0.4658	-7.9383	-1.2088	-1.6325	-1.5956
4240.0000	-0.0000	0.0769	-0.3502	-0.0977	-3.2351	-6.2857	-0.4951	-1.9796	-0.1714	-0.0000	-1.9965	-0.4381	-7.6985	-1.1021	-1.5029	-1.5567
4248.0000	-0.0000	0.0839	-0.3457	-0.0455	-3.0646	-6.2377	-0.4167	-1.9069	-0.1090	-0.0000	-1.8707	-0.4098	-7.4462	-1.0064	-1.3833	-1.5205
4256.0000	-0.0000	0.0881	-0.3420	0.0057	-2.9025	-6.1989	-0.3463	-1.8398	-0.0558	-0.0000	-1.7476	-0.3816	-7.1960	-0.9084	-1.2689	-1.4882
4264.0000	-0.0000	0.0936	-0.3363	0.0629	-2.7428	-6.1802	-0.2699	-1.7778	0.0019	-0.0000	-1.6262	-0.3540	-6.9626	-0.8092	-1.1526	-1.4574
4272.0000	-0.0000	0.1005	-0.3286	0.1123	-2.5847	-6.1819	-0.1959	-1.7189	0.0601	-0.0000	-1.5105	-0.3263	-6.7302	-0.7212	-1.0416	-1.4249
4280.0000	-0.0000	0.1047	-0.3227	0.1533	-2.4342	-6.1918	-0.1341	-1.6647	0.1074	-0.0000	-1.3996	-0.3007	-6.4941	-0.6379	-0.9397	-1.3924
4288.0000	-0.0000	0.1099	-0.3205	0.1992	-2.2895	-6.2045	-0.0723	-1.6138	0.1525	-0.0000	-1.2901	-0.2777	-6.2685	-0.5501	-0.8382	-1.3633
4296.0000	-0.0000	0.1228	-0.3182	0.2455	-2.1455	-6.2181	-0.0060	-1.5586	0.2029	-0.0000	-1.1841	-0.2526	-6.0514	-0.4677	-0.7371	-1.3360
4304.0000	-0.0000	0.1394	-0.3136	0.2811	-2.0060	-6.2218	0.0514	-1.4960	0.2471	-0.0000	-1.0838	-0.2228	-5.8318	-0.3952	-0.6444	-1.3072
4312.0000	-0.0000	0.1521	-0.3089	0.3154	-1.8740	-6.2175	0.1013	-1.4327	0.2830	-0.0000	-0.9863	-0.1944	-5.6161	-0.3211	-0.5568	-1.2766
4320.0000	-0.0000	0.1618	-0.3057	0.3549	-1.7447	-6.2307	0.1561	-1.3743	0.3225	-0.0000	-0.8904	-0.1756	-5.4108	-0.2459	-0.4676	-1.2460
4328.0000	-0.0000	0.1712	-0.3031	0.3884	-1.6170	-6.2704	0.2094	-1.3196	0.3630	-0.0000	-0.7994	-0.1663	-5.2078	-0.1800	-0.3829	-1.2148
4336.0000	-0.0000	0.1789	-0.2993	0.4142	-1.4959	-6.3227	0.2521	-1.2686	0.3941	-0.0000	-0.7129	-0.1611	-5.0047	-0.1187	-0.3062	-1.1820
4344.0000	-0.0000	0.1856	-0.2931	0.4439	-1.3802	-6.4060	0.2944	-1.2240	0.4229	-0.0000	-0.6278	-0.1568	-4.8096	-0.0536	-0.2303	-1.1466
4352.0000	-0.0000	0.1918	-0.2846	0.4745	-1.2655	-6.5516	0.3408	-1.1867	0.4564	-0.0000	-0.5457	-0.1535	-4.6213	0.0073	-0.1545	-1.1089
4360.0000	-0.0000	0.1891	-0.2764	0.4962	-1.1547	-6.6992	0.3799	-1.1551	0.4851	-0.0000	-0.4688	-0.1510	-4.4328	0.0595	-0.0859	-1.0715
4368.0000	-0.0000	0.1703	-0.2699	0.5161	-1.0506	-6.7126	0.4122	-1.1251	0.5064	-0.0000	-0.3944	-0.1467	-4.2483	0.1127	-0.0220	-1.0359
4376.0000	-0.0000	0.1438	-0.2610	0.5408	-0.9492	-6.5492	0.4485	-1.0886	0.5305	-0.0000	-0.3215	-0.1368	-4.0721	0.1673	0.0430	-0.9970
4384.0000	-0.0000	0.1243	-0.2471	0.5608	-0.8493	-6.3140	0.4841	-1.0415	0.5559	-0.0000	-0.2529	-0.1219	-3.8988	0.2141	0.1046	-0.9466
4392.0000	-0.0000	0.1168	-0.2346	0.5741	-0.7551	-6.1061	0.5108	-0.9931	0.5736	-0.0000	-0.1883	-0.1080	-3.7265	0.2566	0.1591	-0.8867
4400.0000	-0.0000	0.1218	-0.2317	0.5907	-0.6659	-5.9180	0.5365	-0.9575	0.5890	-0.0000	-0.1251	-0.0979	-3.5609	0.3022	0.2127	-0.8312
4408.0000	-0.0000	0.1394	-0.2376	0.6085	-0.5777	-5.7165	0.5662	-0.9403	0.6086	-0.0000	-0.0643	-0.0898	-3.4013	0.3447	0.2664	-0.7930
4416.0000	-0.0000	0.1598	-0.2478	0.6190	-0.4928	-5.5156	0.5902	-0.9414	0.6247	-0.0000	-0.0080	-0.0870	-3.2426	0.3796	0.3141	-0.7751
4424.0000	-0.0000	0.1674	-0.2616	0.6277	-0.4139	-5.3307	0.6080	-0.9583	0.6345	-0.0000	0.0459	-0.0983	-3.0875	0.4149	0.3574	-0.7724
4432.0000	-0.0000	0.1600	-0.2783	0.6408	-0.3374	-5.1472	0.6293	-0.9808	0.6465	-0.0000	0.0986	-0.1239	-2.9396	0.4518	0.4018	-0.7779
4440.0000	-0.0000	0.1456	-0.2941	0.6504	-0.2623	-4.9592	0.6505	-0.9965	0.6602	-0.0000	0.1477	-0.1534	-2.7948	0.4821	0.4435	-0.7867
4448.0000	-0.0000	0.1233	-0.3079	0.6543	-0.1921	-4.7799	0.6643	-1.0061	0.6676	-0.0000	0.1933	-0.1821	-2.6513	0.5084	0.4792	-0.7988
4456.0000	-0.0000	0.0879	-0.3224	0.6607	-0.1262	-4.6089	0.6770	-1.0174	0.6728	-0.0000	0.2377	-0.2153	-2.5137	0.5374	0.5139	-0.8154
4464.0000	-0.0000	0.0473	-0.3373	0.6688	-0.0614	-4.4356	0.6933	-1.0295	0.6817	-0.0000	0.2801	-0.2536	-2.3815	0.5642	0.5490	-0.8353
4472.0000	-0.0000	0.0166	-0.3492	0.6709	0.0006	-4.2647	0.7053	-1.0368	0.6882	-0.0000	0.3187	-0.2888	-2.2507	0.5844	0.5792	-0.8557
4480.0000	-0.0000	0.0000	-0.3576	0.6713	0.0576	-4.1029	0.7119	-1.0394	0.6893	-0.0000	0.3552	-0.3150	-2.1231	0.6047	0.6055	-0.8739
4488.0000	-0.0000	-0.0068	-0.3632	0.6755	0.1123	-3.9437	0.7213	-1.0382	0.6922	-0.0000	0.3908	-0.3319	-2.0018	0.6267	0.6328	-0.8866
4496.0000	-0.0000	-0.0080	-0.3659	0.6774	0.1659	-3.7838	0.7313	-1.0306	0.6969	-0.0000	0.4234	-0.3383	-1.8836	0.6435	0.6581	-0.8905
4504.0000	-0.0000	-0.0096	-0.3682	0.6742	0.2154	-3.6300	0.7350	-1.0203	0.6965	-0.0000	0.4530	-0.3364	-1.7669	0.6566	0.6784	-0.8877
4512.0000	-0.0000	-0.0198	-0.3743	0.6731	0.2611	-3.4826	0.7377	-1.0145	0.6942	-0.0000	0.4816	-0.3353	-1.6552	0.6721	0.6977	-0.8852
4520.0000	-0.0000	-0.0401	-0.3834	0.6739	0.3058	-3.3353	0.7438	-1.0101	0.6951	-0.0000	0.5087	-0.3420	-1.5485	0.6862	0.7176	-0.8872
4528.0000	-0.0000	-0.0640	-0.3917	0.6699	0.3484	-3.1905	0.7465	-1.0008	0.6944	-0.0000	0.5326	-0.3543	-1.4432	0.6947	0.7336	-0.8924
4536.0000	-0.0000	-0.0847	-0.4001	0.6642	0.3867	-3.0526	0.7447	-0.9915	0.6892	-0.0000	0.5547	-0.3682	-1.3409	0.7032	0.7463	-0.8994
4544.0000	-0.0000	-0.0969	-0.4114	0.6619	0.4229	-2.9177	0.7452	-0.9889	0.6853	-0.0000	0.5761	-0.3840	-1.2441	0.7135	0.7598	-0.9097
4552.0000	-0.0000	-0.0956	-0.4227	0.6580	0.4584	-2.7833	0.7467	-0.9867	0.6834	-0.0000	0.5952	-0.4008	-1.1502	0.7197	0.7721	-0.9225
4560.0000	-0.0000	-0.0818	-0.4285	0.6500	0.4905	-2.6539	0.7431	-0.9777	0.6775	-0.0000	0.6117	-0.4137	-1.0577	0.7227	0.7802	-0.9312
4568.0000	-0.0000	-0.0628	-0.4295	0.6435	0.5193	-2.5298	0.7384	-0.9656	0.6697	-0.0000	0.6274	-0.4189	-0.9696	0.7278	0.7874	-0.9309
4576.0000	-0.0000	-0.0452	-0.4302	0.6390	0.5474	-2.4068	0.7368	-0.9541	0.6648	-0.0000	0.6420	-0.4159	-0.8860	0.7321	0.7954	-0.9247
4584.0000	-0.0000	-0.0335	-0.4309	0.6307	0.5738	-2.2861	0.7328	-0.9378	0.6590	-0.0000	0.6540	-0.4054	-0.8038	0.7319	0.8004	-0.9180
4592.0000	-0.0000	-0.0357	-0.4297	0.6209	0.5967	-2.1712	0.7250	-0.9110	0.6494	-0.0000	0.6646	-0.3893	-0.7242	0.7316	0.8025	-0.9094
4600.0000	-0.0000	-0.0563	-0.4257	0.6141	0.6178	-2.0593	0.7191	-0.8747	0.6409	-0.0000	0.6747	-0.3696	-0.6493	0.7331	0.8055	-0.8934
4608.0000	-0.0000	-0.0863	-0.4202	0.6064	0.6383	-1.9484	0.7144	-0.8328	0.6343	-0.0000	0.6829	-0.3472	-0.5771	0.7315	0.8078	-0.8699
4616.0000	-0.0000	-0.1074	-0.4146	0.5952	0.6563	-1.8417	0.7057	-0.7907	0.6248	-0.0000	0.6891	-0.3242	-0.5063	0.7271	0.8067	-0.8439
4624.0000	-0.0000	-0.1059	-0.4091	0.5854	0.6715	-1.7397	0.6960	-0.7527	0.6135	-0.0000	0.6948	-0.3042	-0.4391	0.7247	0.8049	-0.8167
4632.0000	-0.0000	-0.0804	-0.4025	0.5774	0.6861	-1.6391	0.6890	-0.7171	0.6048	-0.0000	0.6996	-0.2871	-0.3759	0.7220	0.8039	-0.7860
4640.0000	-0.0000	-0.0404	-0.3938	0.5666	0.6996	-1.5407	0.6806	-0.6802	0.5958	-0.0000	0.7024	-0.2695	-0.3141	0.7155	0.8008	-0.7528
4648.0000	-0.0000	-0.0014	-0.3830	0.5545	0.7102	-1.4472	0.6689	-0.6425	0.5837	-0.0000	0.7041	-0.2514	-0.2544	0.7090	0.7953	-0.7198
4656.0000	-0.0000	0.0230	-0.3708	0.5450	0.7193	-1.3566	0.6588	-0.6048	0.5724	-0.0000	0.7055	-0.2353	-0.1987	0.7043	0.7907	-0.6865
4664.0000	-0.0000	0.0271	-0.3578	0.5351	0.7282	-1.2672	0.6502	-0.5653	0.5631	-0.0000	0.7056	-0.2203	-0.1455	0.6973	0.7857	-0.6523
4672.0000	-0.0000	0.0126	-0.3460	0.5224	0.7351	-1.1813	0.6384	-0.5253	0.5516	-0.0000	0.7041	-0.2044	-0.0934	0.6879	0.7781	-0.6199
4680.0000	-0.0000	-0.0119	-0.3360	0.5108	0.7398	-1.0996	0.6257	-0.4877	0.5386	-0.0000	0.7022	-0.1903	-0.0445	0.6802	0.7700	-0.5909
4688.0000	-0.0000	-0.0311	-0.3245	0.5010	0.7441	-1.0195	0.6156	-0.4489	0.5279	-0.0000	0.6998	-0.1789	0.0011	0.6727	0.7629	-0.5607
4696.0000	-0.0000	-0.0311	-0.3091	0.4892	0.7476	-0.9413	0.6045	-0.4049	0.5172	-0.0000	0.6960	-0.1647	0.0455	0.6622	0.7541	-0.5257
4704.0000	-0.0000	-0.0120	-0.2928	0.4762	0.7489	-0.8673	0.5908	-0.3606	0.5041	-0.0000	0.6912	-0.1444	0.0881	0.6517	0.7436	-0.4879
4712.0000	-0.0000	0.0133	-0.2776	0.4654	0.7490	-0.7961	0.5785	-0.3190	0.4917	-0.0000	0.6864	-0.1217	0.1273	0.6428	0.7339	-0.4504
4720.0000	-0.0000	0.0325	-0.2608	0.4547	0.7492	-0.7260	0.5676	-0.2739	0.4811	-0.0000	0.6807	-0.0989	0.1644	0.6324	0.7242	-0.4130
4728.0000	-0.0000	0.0395	-0.2405	0.4417	0.7479	-0.6589	0.5544	-0.2226	0.4689	-0.0000	0.6738	-0.0742	0.2005	0.6201	0.7125	-0.3755
4736.0000	-0.0000	0.0322	-0.2189	0.4295	0.7448	-0.5955	0.5404	-0.1705	0.4555	-0.0000	0.6667	-0.0481	0.2342	0.6092	0.7004	-0.3388
4744.0000	-0.0000	0.0151	-0.1968	0.4191	0.7415	-0.5336	0.5286	-0.1172	0.4440	-0.0000	0.6594	-0.0223	0.2650	0.5988	0.6894	-0.3032
4752.0000	-0.0000	0.0001	-0.1719	0.4072	0.7379	-0.4734	0.5165	-0.0576	0.4328	-0.0000	0.6510	0.0057	0.2947	0.5862	0.6773	-0.2676
4760.0000	-0.0000	-0.0027	-0.1459	0.3943	0.7326	-0.4168	0.5021	0.0050	0.4197	-0.0000	0.6420	0.0363	0.3230	0.5735	0.6638	-0.2311
4768.0000	-0.0000	0.0089	-0.1224	0.3833	0.7263	-0.3626	0.4890	0.0637	0.4071	-0.0000	0.6331	0.0634	0.3486	0.5625	0.6511	-0.1935
4776.0000	-0.0000	0.0324	-0.0995	0.3726	0.7203	-0.3095	0.4773	0.1209	0.3963	-0.0000	0.6236	0.0848	0.3723	0.5505	0.6388	-0.1559
4784.0000	-0.0000	0.0603	-0.0729	0.3601	0.7134	-0.2589	0.4638	0.1789	0.3843	-0.0000	0.6133	0.1064	0.3954	0.5369	0.6249	-0.1191
4792.0000	-0.0000	0.0779	-0.0443	0.3483	0.7050	-0.2115	0.4497	0.2326	0.3714	-0.0000	0.6029	0.1316	0.4164	0.5247	0.6108	-0.0825
4800.0000	-0.0000	0.0723	-0.0170	0.3382	0.6966	-0.1655	0.4376	0.2811	0.3601	-0.0000	0.5926	0.1568	0.4351	0.5131	0.5977	-0.0464
4808.0000	-0.0000	0.0487	0.0102	0.3270	0.6882	-0.1209	0.4254	0.3317	0.3493	-0.0000	0.5815	0.1824	0.4529	0.4998	0.5841	-0.0135
4816.0000	-0.0000	0.0247	0.0392	0.3150	0.6786	-0.0793	0.4116	0.3872	0.3371	-0.0000	0.5700	0.2129	0.4697	0.4864	0.5694	0.0154
4824.0000	-0.0000	0.0121	0.0688	0.3046	0.6683	-0.0399	0.3987	0.4443	0.3252	-0.0000	0.5588	0.2481	0.4843	0.4746	0.5554	0.0439
4832.0000	-0.0000	0.0132	0.0980	0.2948	0.6583	-0.0015	0.3872	0.5024	0.3150	-0.0000	0.5474	0.2845	0.4974	0.4621	0.5420	0.0740
4840.0000	-0.0000	0.0322	0.1284	0.2835	0.6479	0.0349	0.3745	0.5608	0.3041	-0.0000	0.5353	0.3220	0.5100	0.4484	0.5275	0.1040
4848.0000	-0.0000	0.0705	0.1602	0.2727	0.6363	0.0686	0.3613	0.6152	0.2923	-0.0000	0.5233	0.3615	0.5211	0.4359	0.5129	0.1339
4856.0000	-0.0000	0.1130	0.1924	0.2635	0.6249	0.1010	0.3497	0.6659	0.2820	-0.0000	0.5115	0.4012	0.5302	0.4240	0.4993	0.1653
4864.0000	-0.0000	0.1343	0.2252	0.2535	0.6137	0.1323	0.3384	0.7172	0.2722	-0.0000	0.4993	0.4421	0.5386	0.4108	0.4854	0.1969
4872.0000	-0.0000	0.1227	0.2594	0.2429	0.6016	0.1612	0.3257	0.7681	0.2614	-0.0000	0.4868	0.4894	0.5465	0.3977	0.4708	0.2269
4880.0000	-0.0000	0.0893	0.2953	0.2336	0.5891	0.1882	0.3138	0.8156	0.2508	-0.0000	0.4748	0.5445	0.5525	0.3859	0.4569	0.2586
4888.0000	-0.0000	0.0537	0.3335	0.2249	0.5770	0.2144	0.3033	0.8618	0.2416	-0.0000	0.4626	0.6037	0.5573	0.3738	0.4436	0.2937
4896.0000	-0.0000	0.0342	0.3747	0.2151	0.5647	0.2390	0.2919	0.9068	0.2321	-0.0000	0.4501	0.6663	0.5619	0.3608	0.4296	0.3279
4904.0000	-0.0000	0.0448	0.4177	0.2058	0.5517	0.2613	0.2800	0.9454	0.2218	-0.0000	0.4378	0.7349	0.5653	0.3487	0.4156	0.3591
4912.0000	-0.0000	0.0884	0.4612	0.1977	0.5388	0.2825	0.2696	0.9791	0.2127	-0.0000	0.4257	0.8075	0.5672	0.3375	0.4025	0.3904
4920.0000	-0.0000	0.1489	0.5050	0.1892	0.5263	0.3029	0.2596	1.0133	0.2043	-0.0000	0.4135	0.8764	0.5686	0.3253	0.3894	0.4215
4928.0000	-0.0000	0.2049	0.5489	0.1802	0.5133	0.3213	0.2485	1.0466	0.1951	-0.0000	0.4012	0.9362	0.5697	0.3132	0.3757	0.4482
4936.0000	-0.0000	0.2472	0.5932	0.1722	0.5000	0.3381	0.2381	1.0791	0.1860	-0.0000	0.3893	0.9889	0.5694	0.3023	0.3628	0.4722
4944.0000	-0.0000	0.2755	0.6393	0.1649	0.4872	0.3543	0.2288	1.1204	0.1782	-0.0000	0.3774	1.0401	0.5682	0.2914	0.3504	0.4980
4952.0000	-0.0000	0.2882	0.6874	0.1567	0.4745	0.3692	0.2190	1.1711	0.1701	-0.0000	0.3654	1.0910	0.5668	0.2797	0.3376	0.5246
4960.0000	-0.0000	0.2886	0.7355	0.1488	0.4612	0.3822	0.2088	1.2195	0.1615	-0.0000	0.3537	1.1392	0.5647	0.2690	0.3249	0.5500
4968.0000	-0.0000	0.2910	0.7834	0.1420	0.4482	0.3944	0.1998	1.2634	0.1538	-0.0000	0.3423	1.1865	0.5614	0.2590	0.3130	0.5765
4976.0000	-0.0000	0.3066	0.8327	0.1349	0.4356	0.4060	0.1912	1.3117	0.1467	-0.0000	0.3308	1.2376	0.5578	0.2485	0.3012	0.6050
4984.0000	-0.0000	0.3313	0.8830	0.1272	0.4227	0.4160	0.1818	1.3615	0.1389	-0.0000	0.3193	1.2918	0.5541	0.2380	0.2891	0.6326
4992.0000	-0.0000	0.3556	0.9329	0.1204	0.4097	0.4247	0.1728	1.4047	0.1312	-0.0000	0.3083	1.3444	0.5494	0.2286	0.2775	0.6594
5000.0000	-0.0000	0.3766	0.9846	0.1141	0.3972	0.4329	0.1649	1.4469	0.1244	-0.0000	0.2974	1.3963	0.5439	0.2193	0.2666	0.6874
5008.0000	-0.0000	0.3934	1.0396	0.1072	0.3848	0.4403	0.1566	1.4940	0.1175	-0.0000	0.2865	1.4524	0.5385	0.2095	0.2554	0.7139
5016.0000	-0.0000	0.4065	1.0949	0.1004	0.3722	0.4461	0.1479	1.5397	0.1102	-0.0000	0.2758	1.5115	0.5326	0.2004	0.2442	0.7371
5024.0000	-0.0000	0.4220	1.1487	0.0946	0.3598	0.4513	0.1402	1.5819	0.1036	-0.0000	0.2654	1.5704	0.5259	0.1920	0.2338	0.7601
5032.0000	-0.0000	0.4475	1.2036	0.0886	0.3479	0.4560	0.1329	1.6277	0.0975	-0.0000	0.2551	1.6295	0.5189	0.1831	0.2236	0.7823
5040.0000	-0.0000	0.4810	1.2603	0.0823	0.3358	0.4595	0.1251	1.6721	0.0910	-0.0000	0.2449	1.6864	0.5120	0.1741	0.2131	0.7984
5048.0000	-0.0000	0.5149	1.3175	0.0766	0.3237	0.4619	0.1175	1.7051	0.0846	-0.0000	0.2350	1.7332	0.5044	0.1661	0.2031	0.8097
5056.0000	-0.0000	0.5420	1.3763	0.0715	0.3122	0.4641	0.1109	1.7327	0.0791	-0.0000	0.2254	1.7701	0.4962	0.1581	0.1937	0.8209
5064.0000	-0.0000	0.5541	1.4376	0.0660	0.3008	0.4656	0.1041	1.7630	0.0736	-0.0000	0.2158	1.8068	0.4882	0.1498	0.1842	0.8297
5072.0000	-0.0000	0.5475	1.4989	0.0606	0.2893	0.4658	0.0970	1.7910	0.0678	-0.0000	0.2065	1.8491	0.4800	0.1418	0.1747	0.8336
5080.0000	-0.0000	0.5323	1.5598	0.0561	0.2781	0.4656	0.0907	1.8183	0.0625	-0.0000	0.1975	1.8986	0.4711	0.1346	0.1659	0.8372
5088.0000	-0.0000	0.5233	1.6232	0.0515	0.2674	0.4652	0.0848	1.8561	0.0578	-0.0000	0.1887	1.9601	0.4622	0.1270	0.1574	0.8422
5096.0000	-0.0000	0.5203	1.6882	0.0465	0.2566	0.4638	0.0785	1.8987	0.0528	-0.0000	0.1799	2.0325	0.4534	0.1193	0.1486	0.8438
5104.0000	-0.0000	0.5155	1.7515	0.0422	0.2458	0.4616	0.0725	1.9319	0.0478	-0.0000	0.1716	2.1015	0.4442	0.1124	0.1403	0.8427
5112.0000	-0.0000	0.5101	1.8149	0.0382	0.2356	0.4593	0.0672	1.9612	0.0435	-0.0000	0.1635	2.1609	0.4345	0.1056	0.1325	0.8431
5120.0000	-0.0000	0.5075	1.8813	0.0340	0.2256	0.4566	0.0617	1.9933	0.0392	-0.0000	0.1554	2.2224	0.4252	0.0986	0.1247	0.8411
5128.0000	-0.0000	0.5007	1.9467	0.0300	0.2155	0.4530	0.0561	2.0145	0.0348	-0.0000	0.1476	2.2921	0.4157	0.0919	0.1169	0.8312
5136.0000	-0.0000	0.4847	2.0087	0.0267	0.2057	0.4490	0.0512	2.0216	0.0309	-0.0000	0.1401	2.3622	0.4058	0.0858	0.1097	0.8167
5144.0000	-0.0000	0.4677	2.0720	0.0236	0.1964	0.4450	0.0468	2.0347	0.0276	-0.0000	0.1327	2.4323	0.3960	0.0796	0.1027	0.7991
5152.0000	-0.0000	0.4584	2.1388	0.0203	0.1872	0.4404	0.0421	2.0577	0.0242	-0.0000	0.1254	2.5112	0.3864	0.0733	0.0956	0.7760
5160.0000	-0.0000	0.4562	2.2050	0.0177	0.1780	0.4351	0.0377	2.0754	0.0210	-0.0000	0.1184	2.5944	0.3765	0.0678	0.0889	0.7536
5168.0000	-0.0000	0.4616	2.2711	0.0156	0.1693	0.4299	0.0340	2.0909	0.0185	-0.0000	0.1116	2.6706	0.3665	0.0625	0.0828	0.7380
5176.0000	-0.0000	0.4779	2.3412	0.0132	0.1609	0.4244	0.0303	2.1162	0.0161	-0.0000	0.1049	2.7461	0.3567	0.0571	0.0766	0.7214
5184.0000	-0.0000	0.5013	2.4129	0.0110	0.1525	0.4183	0.0265	2.1412	0.0136	-0.0000	0.0984	2.8349	0.3470	0.0520	0.0705	0.6996
5192.0000	-0.0000	0.5216	2.4819	0.0095	0.1444	0.4120	0.0233	2.1580	0.0115	-0.0000	0.0922	2.9351	0.3371	0.0475	0.0649	0.6821
5200.0000	-0.0000	0.5334	2.5513	0.0079	0.1367	0.4057	0.0204	2.1788	0.0099	-0.0000	0.0861	3.0381	0.3272	0.0430	0.0596	0.6665
5208.0000	-0.0000	0.5365	2.6220	0.0059	0.1291	0.3991	0.0173	2.1990	0.0080	-0.0000	0.0801	3.1439	0.3176	0.0385	0.0542	0.6369
5216.0000	-0.0000	0.5324	2.6843	0.0043	0.1215	0.3920	0.0143	2.1889	0.0059	-0.0000	0.0744	3.2514	0.3080	0.0345	0.0491	0.5936
5224.0000	-0.0000	0.5240	2.7236	0.0035	0.1144	0.3849	0.0120	2.1188	0.0045	-0.0000	0.0689	3.3479	0.2982	0.0308	0.0444	0.5283
5232.0000	-0.0000	0.5105	2.7267	0.0025	0.1076	0.3778	0.0098	1.9429	0.0036	-0.0000	0.0635	3.4161	0.2887	0.0270	0.0398	0.3778
5240.0000	-0.0000	0.4902	2.6924	0.0011	0.1007	0.3702	0.0072	1.6186	0.0023	-0.0000	0.0583	3.4398	0.2794	0.0234	0.0352	0.0817
5248.0000	-0.0000	0.4764	2.6512	0.0002	0.0941	0.3625	0.0051	1.2092	0.0008	-0.0000	0.0534	3.4198	0.2699	0.0203	0.0310	-0.3190
5256.0000	-0.0000	0.4853	2.6457	-0.0000	0.0879	0.3549	0.0035	0.8602	0.0001	-0.0000	0.0486	3.3918	0.2605	0.0172	0.0270	-0.7142
5264.0000	-0.0000	0.4985	2.6675	-0.0000	0.0819	0.3471	0.0019	0.5871	-0.0000	-0.0000	0.0439	3.3932	0.2516	0.0140	0.0230	-1.0477
5272.0000	-0.0000	0.4686	2.6513	-0.0000	0.0760	0.3390	0.0005	0.2167	-0.0000	-0.0000	0.0395	3.3980	0.2426	0.0113	0.0194	-1.3666
5280.0000	-0.0000	0.3814	2.5583	-0.0000	0.0705	0.3311	0.0000	-0.3874	-0.0000	-0.0000	0.0353	3.3333	0.2336	0.0089	0.0161	-1.7970
5288.0000	-0.0000	0.2764	2.4214	-0.0000	0.0654	0.3233	-0.0000	-1.1819	-0.0000	-0.0000	0.0313	3.1741	0.2250	0.0064	0.0131	-2.4710
5296.0000	-0.0000	0.1935	2.2870	-0.0000	0.0604	0.3152	-0.0000	-2.0580	-0.0000	-0.0000	0.0276	2.9698	0.2168	0.0044	0.0103	-3.3613
5304.0000	-0.0000	0.1376	2.1660	-0.0000	0.0557	0.3072	-0.0000	-2.9343	-0.0000	-0.0000	0.0242	2.7701	0.2085	0.0029	0.0079	-4.1768
5312.0000	-0.0000	0.1047	2.0634	-0.0000	0.0515	0.2995	-0.0000	-3.7344	-0.0000	-0.0000	0.0210	2.5857	0.2004	0.0016	0.0060	-4.5858
5320.0000	-0.0000	0.0971	1.9956	-0.0000	0.0475	0.2918	-0.0000	-4.4355	-0.0000	-0.0000	0.0180	2.4242	0.1928	0.0005	0.0042	-4.5718
5328.0000	-0.0000	0.1027	1.9560	-0.0000	0.0436	0.2839	-0.0000	-5.0896	-0.0000	-0.0000	0.0154	2.3008	0.1853	0.0000	0.0028	-4.4103
5336.0000	-0.0000	0.1006	1.9179	-0.0000	0.0401	0.2763	-0.0000	-5.6563	-0.0000	-0.0000	0.0130	2.2055	0.1779	-0.0000	0.0018	-4.3024
5344.0000	-0.0000	0.0933	1.8814	-0.0000	0.0370	0.2689	-0.0000	-5.9479	-0.0000	-0.0000	0.0108	2.1124	0.1709	-0.0000	0.0010	-4.2215
5352.0000	-0.0000	0.1003	1.8716	-0.0000	0.0340	0.2614	-0.0000	-5.8969	-0.0000	-0.0000	0.0089	2.0236	0.1642	-0.0000	0.0003	-4.1083
5360.0000	-0.0000	0.1237	1.8886	-0.0000	0.0311	0.2539	-0.0000	-5.7041	-0.0000	-0.0000	0.0072	1.9621	0.1575	-0.0000	0.0000	-3.9943
5368.0000	-0.0000	0.1457	1.9060	-0.0000	0.0286	0.2467	-0.0000	-5.5700	-0.0000	-0.0000	0.0057	1.9280	0.1511	-0.0000	-0.0000	-3.9037
5376.0000	-0.0000	0.1568	1.9142	-0.0000	0.0263	0.2396	-0.0000	-5.4726	-0.0000	-0.0000	0.0044	1.9000	0.1450	-0.0000	-0.0000	-3.8076
5384.0000	-0.0000	0.1636	1.9258	-0.0000	0.0240	0.2323	-0.0000	-5.3335	-0.0000	-0.0000	0.0034	1.8706	0.1390	-0.0000	-0.0000	-3.6992
5392.0000	-0.0000	0.1699	1.9448	-0.0000	0.0220	0.2253	-0.0000	-5.1882	-0.0000	-0.0000	0.0025	1.8485	0.1331	-0.0000	-0.0000	-3.6027
5400.0000	-0.0000	0.1661	1.9564	-0.0000	0.0201	0.2184	-0.0000	-5.0770	-0.0000	-0.0000	0.0018	1.8298	0.1275	-0.0000	-0.0000	-3.5140
5408.0000	-0.0000	0.1389	1.9393	-0.0000	0.0183	0.2115	-0.0000	-4.9610	-0.0000	-0.0000	0.0012	1.7888	0.1222	-0.0000	-0.0000	-3.4156
5416.0000	-0.0000	0.0881	1.8810	-0.0000	0.0166	0.2046	-0.0000	-4.8237	-0.0000	-0.0000	0.0007	1.6977	0.1168	-0.0000	-0.0000	-3.3176
5424.0000	-0.0000	0.0316	1.7898	-0.0000	0.0151	0.1980	-0.0000	-4.7012	-0.0000	-0.0000	0.0004	1.5495	0.1116	-0.0000	-0.0000	-3.2305
5432.0000	-0.0000	-0.0116	1.6908	-0.0000	0.0137	0.1914	-0.0000	-4.5938	-0.0000	-0.0000	0.0001	1.3629	0.1067	-0.0000	-0.0000	-3.1419
5440.0000	-0.0000	-0.0419	1.5980	-0.0000	0.0123	0.1848	-0.0000	-4.4715	-0.0000	-0.0000	0.0000	1.1655	0.1019	-0.0000	-0.0000	-3.0476
5448.0000	-0.0000	-0.0718	1.5029	-0.0000	0.0110	0.1784	-0.0000	-4.3457	-0.0000	-0.0000	-0.0000	0.9692	0.0971	-0.0000	-0.0000	-2.9600
5456.0000	-0.0000	-0.1043	1.3999	-0.0000	0.0099	0.1722	-0.0000	-4.2373	-0.0000	-0.0000	-0.0000	0.7692	0.0925	-0.0000	-0.0000	-2.8777
5464.0000	-0.0000	-0.1324	1.3000	-0.0000	0.0087	0.1659	-0.0000	-4.1286	-0.0000	-0.0000	-0.0000	0.5639	0.0882	-0.0000	-0.0000	-2.7905
5472.0000	-0.0000	-0.1559	1.2088	-0.0000	0.0076	0.1597	-0.0000	-4.0082	-0.0000	-0.0000	-0.0000	0.3619	0.0839	-0.0000	-0.0000	-2.7037
5480.0000	-0.0000	-0.1812	1.1155	-0.0000	0.0067	0.1538	-0.0000	-3.8962	-0.0000	-0.0000	-0.0000	0.1662	0.0796	-0.0000	-0.0000	-2.6243
5488.0000	-0.0000	-0.2081	1.0160	-0.0000	0.0058	0.1480	-0.0000	-3.7948	-0.0000	-0.0000	-0.0000	-0.0329	0.0757	-0.0000	-0.0000	-2.5447
5496.0000	-0.0000	-0.2303	0.9221	-0.0000	0.0051	0.1422	-0.0000	-3.6852	-0.0000	-0.0000	-0.0000	-0.2402	0.0719	-0.0000	-0.0000	-2.4617
5504.0000	-0.0000	-0.2470	0.8390	-0.0000	0.0044	0.1366	-0.0000	-3.5730	-0.0000	-0.0000	-0.0000	-0.4484	0.0681	-0.0000	-0.0000	-2.3833
5512.0000	-0.0000	-0.2640	0.7542	-0.0000	0.0038	0.1312	-0.0000	-3.4728	-0.0000	-0.0000	-0.0000	-0.6561	0.0645	-0.0000	-0.0000	-2.3094
5520.0000	-0.0000	-0.2852	0.6586	-0.0000	0.0032	0.1258	-0.0000	-3.3738	-0.0000	-0.0000	-0.0000	-0.8751	0.0611	-0.0000	-0.0000	-2.2325
5528.0000	-0.0000	-0.3068	0.5594	-0.0000	0.0026	0.1204	-0.0000	-3.2670	-0.0000	-0.0000	-0.0000	-1.1089	0.0578	-0.0000	-0.0000	-2.1560
5536.0000	-0.0000	-0.3232	0.4657	-0.0000	0.0022	0.1153	-0.0000	-3.1660	-0.0000	-0.0000	-0.0000	-1.3442	0.0545	-0.0000	-0.0000	-2.0852
5544.0000	-0.0000	-0.3337	0.3753	-0.0000	0.0018	0.1103	-0.0000	-3.0734	-0.0000	-0.0000	-0.0000	-1.5737	0.0515	-0.0000	-0.0000	-2.0149
5552.0000	-0.0000	-0.3408	0.2823	-0.0000	0.0014	0.1054	-0.0000	-2.9759	-0.0000	-0.0000	-0.0000	-1.8070	0.0485	-0.0000	-0.0000	-1.9423
5560.0000	-0.0000	-0.3441	0.1878	-0.0000	0.0011	0.1006	-0.0000	-2.8763	-0.0000	-0.0000	-0.0000	-2.0485	0.0456	-0.0000	-0.0000	-1.8734
5568.0000	-0.0000	-0.3444	0.0957	-0.0000	0.0008	0.0960	-0.0000	-2.7859	-0.0000	-0.0000	-0.0000	-2.2911	0.0428	-0.0000	-0.0000	-1.8082
5576.0000	-0.0000	-0.3485	0.0048	-0.0000	0.0006	0.0914	-0.0000	-2.6974	-0.0000	-0.0000	-0.0000	-2.5363	0.0402	-0.0000	-0.0000	-1.7413
5584.0000	-0.0000	-0.3603	-0.0850	-0.0000	0.0004	0.0869	-0.0000	-2.6034	-0.0000	-0.0000	-0.0000	-2.7927	0.0376	-0.0000	-0.0000	-1.6747
5592.0000	-0.0000	-0.3708	-0.1648	-0.0000	0.0003	0.0826	-0.0000	-2.5136	-0.0000	-0.0000	-0.0000	-3.0499	0.0351	-0.0000	-0.0000	-1.6128
5600.0000	-0.0000	-0.3709	-0.2296	-0.0000	0.0002	0.0785	-0.0000	-2.4310	-0.0000	-0.0000	-0.0000	-3.2885	0.0327	-0.0000	-0.0000	-1.5518
5608.0000	-0.0000	-0.3661	-0.2927	-0.0000	0.0001	0.0744	-0.0000	-2.3453	-0.0000	-0.0000	-0.0000	-3.5143	0.0304	-0.0000	-0.0000	-1.4891
5616.0000	-0.0000	-0.3647	-0.3685	-0.0000	0.0000	0.0705	-0.0000	-2.2579	-0.0000	-0.0000	-0.0000	-3.7496	0.0282	-0.0000	-0.0000	-1.4294
5624.0000	-0.0000	-0.3618	-0.4474	-0.0000	-0.0000	0.0668	-0.0000	-2.1778	-0.0000	-0.0000	-0.0000	-3.9956	0.0260	-0.0000	-0.0000	-1.3731
5632.0000	-0.0000	-0.3514	-0.5108	-0.0000	-0.0000	0.0632	-0.0000	-2.1002	-0.0000	-0.0000	-0.0000	-4.2333	0.0240	-0.0000	-0.0000	-1.3157
5640.0000	-0.0000	-0.3396	-0.5617	-0.0000	-0.0000	0.0597	-0.0000	-2.0183	-0.0000	-0.0000	-0.0000	-4.4524	0.0221	-0.0000	-0.0000	-1.2586
5648.0000	-0.0000	-0.3346	-0.6155	-0.0000	-0.0000	0.0565	-0.0000	-1.9398	-0.0000	-0.0000	-0.0000	-4.6585	0.0201	-0.0000	-0.0000	-1.2055
5656.0000	-0.0000	-0.3334	-0.6701	-0.0000	-0.0000	0.0533	-0.0000	-1.8675	-0.0000	-0.0000	-0.0000	-4.8647	0.0183	-0.0000	-0.0000	-1.1535
5664.0000	-0.0000	-0.3307	-0.7100	-0.0000	-0.0000	0.0503	-0.0000	-1.7933	-0.0000	-0.0000	-0.0000	-5.0801	0.0166	-0.0000	-0.0000	-1.1003
5672.0000	-0.0000	-0.3273	-0.7334	-0.0000	-0.0000	0.0473	-0.0000	-1.7177	-0.0000	-0.0000	-0.0000	-5.2919	0.0149	-0.0000	-0.0000	-1.0495
5680.0000	-0.0000	-0.3220	-0.7514	-0.0000	-0.0000	0.0445	-0.0000	-1.6482	-0.0000	-0.0000	-0.0000	-5.4762	0.0134	-0.0000	-0.0000	-1.0017
5688.0000	-0.0000	-0.3089	-0.7688	-0.0000	-0.0000	0.0417	-0.0000	-1.5812	-0.0000	-0.0000	-0.0000	-5.6470	0.0120	-0.0000	-0.0000	-0.9534
5696.0000	-0.0000	-0.2877	-0.7833	-0.0000	-0.0000	0.0390	-0.0000	-1.5110	-0.0000	-0.0000	-0.0000	-5.8444	0.0107	-0.0000	-0.0000	-0.9052
5704.0000	-0.0000	-0.2659	-0.7957	-0.0000	-0.0000	0.0364	-0.0000	-1.4434	-0.0000	-0.0000	-0.0000	-6.0382	0.0094	-0.0000	-0.0000	-0.8605
5712.0000	-0.0000	-0.2489	-0.8082	-0.0000	-0.0000	0.0340	-0.0000	-1.3813	-0.0000	-0.0000	-0.0000	-6.1167	0.0083	-0.0000	-0.0000	-0.8169
5720.0000	-0.0000	-0.2375	-0.8191	-0.0000	-0.0000	0.0316	-0.0000	-1.3181	-0.0000	-0.0000	-0.0000	-6.0280	0.0073	-0.0000	-0.0000	-0.7725
5728.0000	-0.0000	-0.2342	-0.8277	-0.0000	-0.0000	0.0293	-0.0000	-1.2537	-0.0000	-0.0000	-0.0000	-5.8562	0.0063	-0.0000	-0.0000	-0.7301
5736.0000	-0.0000	-0.2421	-0.8364	-0.0000	-0.0000	0.0273	-0.0000	-1.1944	-0.0000	-0.0000	-0.0000	-5.7011	0.0055	-0.0000	-0.0000	-0.6904
5744.0000	-0.0000	-0.2569	-0.8459	-0.0000	-0.0000	0.0253	-0.0000	-1.1377	-0.0000	-0.0000	-0.0000	-5.5659	0.0047	-0.0000	-0.0000	-0.6505
5752.0000	-0.0000	-0.2678	-0.8550	-0.0000	-0.0000	0.0234	-0.0000	-1.0786	-0.0000	-0.0000	-0.0000	-5.4167	0.0040	-0.0000	-0.0000	-0.6107
5760.0000	-0.0000	-0.2690	-0.8639	-0.0000	-0.0000	0.0217	-0.0000	-1.0215	-0.0000	-0.0000	-0.0000	-5.2637	0.0033	-0.0000	-0.0000	-0.5738
5768.0000	-0.0000	-0.2652	-0.8737	-0.0000	-0.0000	0.0201	-0.0000	-0.9694	-0.0000	-0.0000	-0.0000	-5.1256	0.0028	-0.0000	-0.0000	-0.5382
5776.0000	-0.0000	-0.2627	-0.8833	-0.0000	-0.0000	0.0186	-0.0000	-0.9167	-0.0000	-0.0000	-0.0000	-4.9889	0.0023	-0.0000	-0.0000	-0.5020
5784.0000	-0.0000	-0.2635	-0.8910	-0.0000	-0.0000	0.0171	-0.0000	-0.8630	-0.0000	-0.0000	-0.0000	-4.8441	0.0018	-0.0000	-0.0000	-0.4674
5792.0000	-0.0000	-0.2712	-0.8976	-0.0000	-0.0000	0.0158	-0.0000	-0.8137	-0.0000	-0.0000	-0.0000	-4.7055	0.0014	-0.0000	-0.0000	-0.4353
5800.0000	-0.0000	-0.2904	-0.9062	-0.0000	-0.0000	0.0146	-0.0000	-0.7669	-0.0000	-0.0000	-0.0000	-4.5753	0.0011	-0.0000	-0.0000	-0.4031
5808.0000	-0.0000	-0.3152	-0.9196	-0.0000	-0.0000	0.0134	-0.0000	-0.7183	-0.0000	-0.0000	-0.0000	-4.4411	0.0008	-0.0000	-0.0000	-0.3711
5816.0000	-0.0000	-0.3305	-0.9346	-0.0000	-0.0000	0.0123	-0.0000	-0.6713	-0.0000	-0.0000	-0.0000	-4.3056	0.0006	-0.0000	-0.0000	-0.3415
5824.0000	-0.0000	-0.3312	-0.9448	-0.0000	-0.0000	0.0113	-0.0000	-0.6286	-0.0000	-0.0000	-0.0000	-4.1784	0.0004	-0.0000	-0.0000	-0.3132
5832.0000	-0.0000	-0.3263	-0.9487	-0.0000	-0.0000	0.0103	-0.0000	-0.5859	-0.0000	-0.0000	-0.0000	-4.0536	0.0002	-0.0000	-0.0000	-0.2845
5840.0000	-0.0000	-0.3233	-0.9511	-0.0000	-0.0000	0.0094	-0.0000	-0.5423	-0.0000	-0.0000	-0.0000	-3.9252	0.0001	-0.0000	-0.0000	-0.2571
5848.0000	-0.0000	-0.3230	-0.9546	-0.0000	-0.0000	0.0086	-0.0000	-0.5023	-0.0000	-0.0000	-0.0000	-3.8005	0.0000	-0.0000	-0.0000	-0.2319
5856.0000	-0.0000	-0.3295	-0.9573	-0.0000	-0.0000	0.0078	-0.0000	-0.4649	-0.0000	-0.0000	-0.0000	-3.6823	-0.0000	-0.0000	-0.0000	-0.2068
5864.0000	-0.0000	-0.3467	-0.9607	-0.0000	-0.0000	0.0070	-0.0000	-0.4260	-0.0000	-0.0000	-0.0000	-3.5627	-0.0000	-0.0000	-0.0000	-0.1818
5872.0000	-0.0000	-0.3681	-0.9680	-0.0000	-0.0000	0.0063	-0.0000	-0.3883	-0.0000	-0.0000	-0.0000	-3.4425	-0.0000	-0.0000	-0.0000	-0.1590
5880.0000	-0.0000	-0.3835	-0.9759	-0.0000	-0.0000	0.0057	-0.0000	-0.3546	-0.0000	-0.0000	-0.0000	-3.3284	-0.0000	-0.0000	-0.0000	-0.1373
5888.0000	-0.0000	-0.3928	-0.9787	-0.0000	-0.0000	0.0050	-0.0000	-0.3210	-0.0000	-0.0000	-0.0000	-3.2172	-0.0000	-0.0000	-0.0000	-0.1153
5896.0000	-0.0000	-0.4010	-0.9788	-0.0000	-0.0000	0.0044	-0.0000	-0.2866	-0.0000	-0.0000	-0.0000	-3.1039	-0.0000	-0.0000	-0.0000	-0.0943
5904.0000	-0.0000	-0.4093	-0.9818	-0.0000	-0.0000	0.0039	-0.0000	-0.2553	-0.0000	-0.0000	-0.0000	-2.9937	-0.0000	-0.0000	-0.0000	-0.0754
5912.0000	-0.0000	-0.4185	-0.9866	-0.0000	-0.0000	0.0034	-0.0000	-0.2263	-0.0000	-0.0000	-0.0000	-2.8888	-0.0000	-0.0000	-0.0000	-0.0566
5920.0000	-0.0000	-0.4313	-0.9895	-0.0000	-0.0000	0.0029	-0.0000	-0.1963	-0.0000	-0.0000	-0.0000	-2.7837	-0.0000	-0.0000	-0.0000	-0.0378
5928.0000	-0.0000	-0.4498	-0.9912	-0.0000	-0.0000	0.0025	-0.0000	-0.1672	-0.0000	-0.0000	-0.0000	-2.6785	-0.0000	-0.0000	-0.0000	-0.0209
5936.0000	-0.0000	-0.4758	-0.9920	-0.0000	-0.0000	0.0021	-0.0000	-0.1414	-0.0000	-0.0000	-0.0000	-2.5783	-0.0000	-0.0000	-0.0000	-0.0051
5944.0000	-0.0000	-0.5075	-0.9901	-0.0000	-0.0000	0.0017	-0.0000	-0.1161	-0.0000	-0.0000	-0.0000	-2.4810	-0.0000	-0.0000	-0.0000	0.0111
5952.0000	-0.0000	-0.5359	-0.9865	-0.0000	-0.0000	0.0014	-0.0000	-0.0899	-0.0000	-0.0000	-0.0000	-2.3826	-0.0000	-0.0000	-0.0000	0.0263
5960.0000	-0.0000	-0.5541	-0.9852	-0.0000	-0.0000	0.0011	-0.0000	-0.0663	-0.0000	-0.0000	-0.0000	-2.2867	-0.0000	-0.0000	-0.0000	0.0398
5968.0000	-0.0000	-0.5674	-0.9867	-0.0000	-0.0000	0.0008	-0.0000	-0.0449	-0.0000	-0.0000	-0.0000	-2.1956	-0.0000	-0.0000	-0.0000	0.0532
5976.0000	-0.0000	-0.5814	-0.9885	-0.0000	-0.0000	0.0006	-0.0000	-0.0227	-0.0000	-0.0000	-0.0000	-2.1049	-0.0000	-0.0000	-0.0000	0.0665
5984.0000	-0.0000	-0.5929	-0.9899	-0.0000	-0.0000	0.0004	-0.0000	-0.0011	-0.0000	-0.0000	-0.0000	-2.0144	-0.0000	-0.0000	-0.0000	0.0784
5992.0000	-0.0000	-0.6051	-0.9905	-0.0000	-0.0000	0.0003	-0.0000	0.0176	-0.0000	-0.0000	-0.0000	-1.9280	-0.0000	-0.0000	-0.0000	0.0892
6000.0000	-0.0000	-0.6307	-0.9893	-0.0000	-0.0000	0.0001	-0.0000	0.0357	-0.0000	-0.0000	-0.0000	-1.8446	-0.0000	-0.0000	-0.0000	0.1003
6008.0000	-0.0000	-0.6681	-0.9883	-0.0000	-0.0000	0.0000	-0.0000	0.0547	-0.0000	-0.0000	-0.0000	-1.7607	-0.0000	-0.0000	-0.0000	0.1107
6016.0000	-0.0000	-0.6969	-0.9900	-0.0000	-0.0000	-0.0000	-0.0000	0.0715	-0.0000	-0.0000	-0.0000	-1.6789	-0.0000	-0.0000	-0.0000	0.1197
6024.0000	-0.0000	-0.7091	-0.9916	-0.0000	-0.0000	-0.0000	-0.0000	0.0863	-0.0000	-0.0000	-0.0000	-1.6014	-0.0000	-0.0000	-0.0000	0.1284
6032.0000	-0.0000	-0.7168	-0.9906	-0.0000	-0.0000	-0.0000	-0.0000	0.1019	-0.0000	-0.0000	-0.0000	-1.5247	-0.0000	-0.0000	-0.0000	0.1372
6040.0000	-0.0000	-0.7295	-0.9898	-0.0000	-0.0000	-0.0000	-0.0000	0.1170	-0.0000	-0.0000	-0.0000	-1.4483	-0.0000	-0.0000	-0.0000	0.1447
6048.0000	-0.0000	-0.7478	-0.9917	-0.0000	-0.0000	-0.0000	-0.0000	0.1296	-0.0000	-0.0000	-0.0000	-1.3755	-0.0000	-0.0000	-0.0000	0.1514
6056.0000	-0.0000	-0.7766	-0.9927	-0.0000	-0.0000	-0.0000	-0.0000	0.1416	-0.0000	-0.0000	-0.0000	-1.3055	-0.0000	-0.0000	-0.0000	0.1583
6064.0000	-0.0000	-0.8174	-0.9901	-0.0000	-0.0000	-0.0000	-0.0000	0.1544	-0.0000	-0.0000	-0.0000	-1.2355	-0.0000	-0.0000	-0.0000	0.1647
6072.0000	-0.0000	-0.8606	-0.9874	-0.0000	-0.0000	-0.0000	-0.0000	0.1655	-0.0000	-0.0000	-0.0000	-1.1673	-0.0000	-0.0000	-0.0000	0.1698
6080.0000	-0.0000	-0.8975	-0.9869	-0.0000	-0.0000	-0.0000	-0.0000	0.1749	-0.0000	-0.0000	-0.0000	-1.1028	-0.0000	-0.0000	-0.0000	0.1747
6088.0000	-0.0000	-0.9279	-0.9868	-0.0000	-0.0000	-0.0000	-0.0000	0.1848	-0.0000	-0.0000	-0.0000	-1.0394	-0.0000	-0.0000	-0.0000	0.1798
6096.0000	-0.0000	-0.9490	-0.9870	-0.0000	-0.0000	-0.0000	-0.0000	0.1944	-0.0000	-0.0000	-0.0000	-0.9764	-0.0000	-0.0000	-0.0000	0.1839
6104.0000	-0.0000	-0.9600	-0.9892	-0.0000	-0.0000	-0.0000	-0.0000	0.2020	-0.0000	-0.0000	-0.0000	-0.9165	-0.0000	-0.0000	-0.0000	0.1872
6112.0000	-0.0000	-0.9699	-0.9928	-0.0000	-0.0000	-0.0000	-0.0000	0.2091	-0.0000	-0.0000	-0.0000	-0.8593	-0.0000	-0.0000	-0.0000	0.1907
6120.0000	-0.0000	-0.9868	-0.9960	-0.0000	-0.0000	-0.0000	-0.0000	0.2168	-0.0000	-0.0000	-0.0000	-0.8022	-0.0000	-0.0000	-0.0000	0.1939
6128.0000	-0.0000	-1.0087	-0.9999	-0.0000	-0.0000	-0.0000	-0.0000	0.2232	-0.0000	-0.0000	-0.0000	-0.7467	-0.0000	-0.0000	-0.0000	0.1961
6136.0000	-0.0000	-1.0346	-1.0066	-0.0000	-0.0000	-0.0000	-0.0000	0.2281	-0.0000	-0.0000	-0.0000	-0.6945	-0.0000	-0.0000	-0.0000	0.1980
6144.0000	-0.0000	-1.0650	-1.0160	-0.0000	-0.0000	-0.0000	-0.0000	0.2335	-0.0000	-0.0000	-0.0000	-0.6435	-0.0000	-0.0000	-0.0000	0.2002
6152.0000	-0.0000	-1.0939	-1.0264	-0.0000	-0.0000	-0.0000	-0.0000	0.2387	-0.0000	-0.0000	-0.0000	-0.5929	-0.0000	-0.0000	-0.0000	0.2016
6160.0000	-0.0000	-1.1193	-1.0357	-0.0000	-0.0000	-0.0000	-0.0000	0.2423	-0.0000	-0.0000	-0.0000	-0.5450	-0.0000	-0.0000	-0.0000	0.2023
6168.0000	-0.0000	-1.1502	-1.0421	-0.0000	-0.0000	-0.0000	-0.0000	0.2453	-0.0000	-0.0000	-0.0000	-0.4996	-0.0000	-0.0000	-0.0000	0.2033
6176.0000	-0.0000	-1.1861	-1.0471	-0.0000	-0.0000	-0.0000	-0.0000	0.2490	-0.0000	-0.0000	-0.0000	-0.4544	-0.0000	-0.0000	-0.0000	0.2040
6184.0000	-0.0000	-1.2145	-1.0542	-0.0000	-0.0000	-0.0000	-0.0000	0.2518	-0.0000	-0.0000	-0.0000	-0.4106	-0.0000	-0.0000	-0.0000	0.2039
6192.0000	-0.0000	-1.2362	-1.0649	-0.0000	-0.0000	-0.0000	-0.0000	0.2531	-0.0000	-0.0000	-0.0000	-0.3697	-0.0000	-0.0000	-0.0000	0.2036
6200.0000	-0.0000	-1.2628	-1.0769	-0.0000	-0.0000	-0.0000	-0.0000	0.2549	-0.0000	-0.0000	-0.0000	-0.3301	-0.0000	-0.0000	-0.0000	0.2036
6208.0000	-0.0000	-1.2906	-1.0881	-0.0000	-0.0000	-0.0000	-0.0000	0.2568	-0.0000	-0.0000	-0.0000	-0.2907	-0.0000	-0.0000	-0.0000	0.2030
6216.0000	-0.0000	-1.3120	-1.0984	-0.0000	-0.0000	-0.0000	-0.0000	0.2572	-0.0000	-0.0000	-0.0000	-0.2537	-0.0000	-0.0000	-0.0000	0.2018
6224.0000	-0.0000	-1.3352	-1.1106	-0.0000	-0.0000	-0.0000	-0.0000	0.2572	-0.0000	-0.0000	-0.0000	-0.2189	-0.0000	-0.0000	-0.0000	0.2009
6232.0000	-0.0000	-1.3624	-1.1296	-0.0000	-0.0000	-0.0000	-0.0000	0.2579	-0.0000	-0.0000	-0.0000	-0.1845	-0.0000	-0.0000	-0.0000	0.1998
6240.0000	-0.0000	-1.3801	-1.1578	-0.0000	-0.0000	-0.0000	-0.0000	0.2578	-0.0000	-0.0000	-0.0000	-0.1511	-0.0000	-0.0000	-0.0000	0.1981
6248.0000	-0.0000	-1.3914	-1.1913	-0.0000	-0.0000	-0.0000	-0.0000	0.2566	-0.0000	-0.0000	-0.0000	-0.1204	-0.0000	-0.0000	-0.0000	0.1963
6256.0000	-0.0000	-1.4156	-1.2260	-0.0000	-0.0000	-0.0000	-0.0000	0.2557	-0.0000	-0.0000	-0.0000	-0.0908	-0.0000	-0.0000	-0.0000	0.1947
6264.0000	-0.0000	-1.4500	-1.2608	-0.0000	-0.0000	-0.0000	-0.0000	0.2551	-0.0000	-0.0000	-0.0000	-0.0615	-0.0000	-0.0000	-0.0000	0.1927
6272.0000	-0.0000	-1.4808	-1.2925	-0.0000	-0.0000	-0.0000	-0.0000	0.2532	-0.0000	-0.0000	-0.0000	-0.0341	-0.0000	-0.0000	-0.0000	0.1903
6280.0000	-0.0000	-1.5159	-1.3135	-0.0000	-0.0000	-0.0000	-0.0000	0.2511	-0.0000	-0.0000	-0.0000	-0.0087	-0.0000	-0.0000	-0.0000	0.1880
6288.0000	-0.0000	-1.5621	-1.3237	-0.0000	-0.0000	-0.0000	-0.0000	0.2495	-0.0000	-0.0000	-0.0000	0.0163	-0.0000	-0.0000	-0.0000	0.1858
6296.0000	-0.0000	-1.6023	-1.3322	-0.0000	-0.0000	-0.0000	-0.0000	0.2474	-0.0000	-0.0000	-0.0000	0.0405	-0.0000	-0.0000	-0.0000	0.1830
6304.0000	-0.0000	-1.6296	-1.3445	-0.0000	-0.0000	-0.0000	-0.0000	0.2444	-0.0000	-0.0000	-0.0000	0.0624	-0.0000	-0.0000	-0.0000	0.1801
6312.0000	-0.0000	-1.6577	-1.3580	-0.0000	-0.0000	-0.0000	-0.0000	0.2417	-0.0000	-0.0000	-0.0000	0.0833	-0.0000	-0.0000	-0.0000	0.1775
6320.0000	-0.0000	-1.6832	-1.3710	-0.0000	-0.0000	-0.0000	-0.0000	0.2393	-0.0000	-0.0000	-0.0000	0.1040	-0.0000	-0.0000	-0.0000	0.1746
6328.0000	-0.0000	-1.6965	-1.3851	-0.0000	-0.0000	-0.0000	-0.0000	0.2360	-0.0000	-0.0000	-0.0000	0.1230	-0.0000	-0.0000	-0.0000	0.1714
6336.0000	-0.0000	-1.7170	-1.3979	-0.0000	-0.0000	-0.0000	-0.0000	0.2323	-0.0000	-0.0000	-0.0000	0.1404	-0.0000	-0.0000	-0.0000	0.1684
6344.0000	-0.0000	-1.7579	-1.4060	-0.0000	-0.0000	-0.0000	-0.0000	0.2293	-0.0000	-0.0000	-0.0000	0.1573	-0.0000	-0.0000	-0.0000	0.1654
6352.0000	-0.0000	-1.7927	-1.4106	-0.0000	-0.0000	-0.0000	-0.0000	0.2259	-0.0000	-0.0000	-0.0000	0.1737	-0.0000	-0.0000	-0.0000	0.1620
6360.0000	-0.0000	-1.8082	-1.4138	-0.0000	-0.0000	-0.0000	-0.0000	0.2218	-0.0000	-0.0000	-0.0000	0.1882	-0.0000	-0.0000	-0.0000	0.1586
6368.0000	-0.0000	-1.8278	-1.4157	-0.0000	-0.0000	-0.0000	-0.0000	0.2180	-0.0000	-0.0000	-0.0000	0.2017	-0.0000	-0.0000	-0.0000	0.1555
6376.0000	-0.0000	-1.8546	-1.4174	-0.0000	-0.0000	-0.0000	-0.0000	0.2145	-0.0000	-0.0000	-0.0000	0.2151	-0.0000	-0.0000	-0.0000	0.1521
6384.0000	-0.0000	-1.8731	-1.4180	-0.0000	-0.0000	-0.0000	-0.0000	0.2103	-0.0000	-0.0000	-0.0000	0.2272	-0.0000	-0.0000	-0.0000	0.1485
6392.0000	-0.0000	-1.9016	-1.4113	-0.0000	-0.0000	-0.0000	-0.0000	0.2059	-0.0000	-0.0000	-0.0000	0.2378	-0.0000	-0.0000	-0.0000	0.1451
6400.0000	-0.0000	-1.9541	-1.3944	-0.0000	-0.0000	-0.0000	-0.0000	0.2020	-0.0000	-0.0000	-0.0000	0.2482	-0.0000	-0.0000	-0.0000	0.1418
6408.0000	-0.0000	-1.9891	-1.3724	-0.0000	-0.0000	-0.0000	-0.0000	0.1980	-0.0000	-0.0000	-0.0000	0.2580	-0.0000	-0.0000	-0.0000	0.1382
6416.0000	-0.0000	-1.9783	-1.3473	-0.0000	-0.0000	-0.0000	-0.0000	0.1933	-0.0000	-0.0000	-0.0000	0.2664	-0.0000	-0.0000	-0.0000	0.1346
6424.0000	-0.0000	-1.9504	-1.3137	-0.0000	-0.0000	-0.0000	-0.0000	0.1889	-0.0000	-0.0000	-0.0000	0.2739	-0.0000	-0.0000	-0.0000	0.1313
6432.0000	-0.0000	-1.9125	-1.2721	-0.0000	-0.0000	-0.0000	-0.0000	0.1849	-0.0000	-0.0000	-0.0000	0.2814	-0.0000	-0.0000	-0.0000	0.1278
6440.0000	-0.0000	-1.8400	-1.2286	-0.0000	-0.0000	-0.0000	-0.0000	0.1803	-0.0000	-0.0000	-0.0000	0.2879	-0.0000	-0.0000	-0.0000	0.1242
6448.0000	-0.0000	-1.7604	-1.1792	-0.0000	-0.0000	-0.0000	-0.0000	0.1756	-0.0000	-0.0000	-0.0000	0.2932	-0.0000	-0.0000	-0.0000	0.1207
6456.0000	-0.0000	-1.7041	-1.1106	-0.0000	-0.0000	-0.0000	-0.0000	0.1714	-0.0000	-0.0000	-0.0000	0.2982	-0.0000	-0.0000	-0.0000	0.1174
6464.0000	-0.0000	-1.6049	-1.0154	-0.0000	-0.0000	-0.0000	-0.0000	0.1671	-0.0000	-0.0000	-0.0000	0.3030	-0.0000	-0.0000	-0.0000	0.1139
6472.0000	-0.0000	-1.3977	-0.8884	-0.0000	-0.0000	-0.0000	-0.0000	0.1624	-0.0000	-0.0000	-0.0000	0.3065	-0.0000	-0.0000	-0.0000	0.1104
6480.0000	-0.0000	-1.1247	-0.7241	-0.0000	-0.0000	-0.0000	-0.0000	0.1579	-0.0000	-0.0000	-0.0000	0.3094	-0.0000	-0.0000	-0.0000	0.1071
6488.0000	-0.0000	-0.8174	-0.5330	-0.0000	-0.0000	-0.0000	-0.0000	0.1537	-0.0000	-0.0000	-0.0000	0.3122	-0.0000	-0.0000	-0.0000	0.1038
6496.0000	-0.0000	-0.4459	-0.3418	-0.0000	-0.0000	-0.0000	-0.0000	0.1492	-0.0000	-0.0000	-0.0000	0.3144	-0.0000	-0.0000	-0.0000	0.1004
6504.0000	-0.0000	-0.0771	-0.1609	-0.0000	-0.0000	-0.0000	-0.0000	0.1446	-0.0000	-0.0000	-0.0000	0.3155	-0.0000	-0.0000	-0.0000	0.0971
6512.0000	-0.0000	0.1772	0.0211	-0.0000	-0.0000	-0.0000	-0.0000	0.1404	-0.0000	-0.0000	-0.0000	0.3165	-0.0000	-0.0000	-0.0000	0.0940
6520.0000	-0.0000	0.4318	0.2003	-0.0000	-0.0000	-0.0000	-0.0000	0.1362	-0.0000	-0.0000	-0.0000	0.3174	-0.0000	-0.0000	-0.0000	0.0907
6528.0000	-0.0000	0.9107	0.3490	-0.0000	-0.0000	-0.0000	-0.0000	0.1317	-0.0000	-0.0000	-0.0000	0.3173	-0.0000	-0.0000	-0.0000	0.0875
6536.0000	-0.0000	1.5256	0.4572	-0.0000	-0.0000	-0.0000	-0.0000	0.1274	-0.0000	-0.0000	-0.0000	0.3166	-0.0000	-0.0000	-0.0000	0.0845
6544.0000	-0.0000	1.9526	0.5449	-0.0000	-0.0000	-0.0000	-0.0000	0.1234	-0.0000	-0.0000	-0.0000	0.3161	-0.0000	-0.0000	-0.0000	0.0815
6552.0000	-0.0000	2.1253	0.6281	-0.0000	-0.0000	-0.0000	-0.0000	0.1192	-0.0000	-0.0000	-0.0000	0.3150	-0.0000	-0.0000	-0.0000	0.0784
6560.0000	-0.0000	2.2553	0.7052	-0.0000	-0.0000	-0.0000	-0.0000	0.1149	-0.0000	-0.0000	-0.0000	0.3132	-0.0000	-0.0000	-0.0000	0.0755
6568.0000	-0.0000	2.4212	0.7781	-0.0000	-0.0000	-0.0000	-0.0000	0.1110	-0.0000	-0.0000	-0.0000	0.3112	-0.0000	-0.0000	-0.0000	0.0727
6576.0000	-0.0000	2.5300	0.8530	-0.0000	-0.0000	-0.0000	-0.0000	0.1072	-0.0000	-0.0000	-0.0000	0.3093	-0.0000	-0.0000	-0.0000	0.0698
6584.0000	-0.0000	2.5980	0.9214	-0.0000	-0.0000	-0.0000	-0.0000	0.1031	-0.0000	-0.0000	-0.0000	0.3066	-0.0000	-0.0000	-0.0000	0.0670
6592.0000	-0.0000	2.7108	0.9695	-0.0000	-0.0000	-0.0000	-0.0000	0.0992	-0.0000	-0.0000	-0.0000	0.3035	-0.0000	-0.0000	-0.0000	0.0643
6600.0000	-0.0000	2.8187	1.0012	-0.0000	-0.0000	-0.0000	-0.0000	0.0957	-0.0000	-0.0000	-0.0000	0.3005	-0.0000	-0.0000	-0.0000	0.0617
6608.0000	-0.0000	2.8552	1.0305	-0.0000	-0.0000	-0.0000	-0.0000	0.0920	-0.0000	-0.0000	-0.0000	0.2973	-0.0000	-0.0000	-0.0000	0.0591
6616.0000	-0.0000	2.9036	1.0609	-0.0000	-0.0000	-0.0000	-0.0000	0.0882	-0.0000	-0.0000	-0.0000	0.2934	-0.0000	-0.0000	-0.0000	0.0565
6624.0000	-0.0000	3.0411	1.0880	-0.0000	-0.0000	-0.0000	-0.0000	0.0847	-0.0000	-0.0000	-0.0000	0.2895	-0.0000	-0.0000	-0.0000	0.0541
6632.0000	-0.0000	3.1958	1.1095	-0.0000	-0.0000	-0.0000	-0.0000	0.0814	-0.0000	-0.0000	-0.0000	0.2857	-0.0000	-0.0000	-0.0000	0.0517
6640.0000	-0.0000	3.2894	1.1247	-0.0000	-0.0000	-0.0000	-0.0000	0.0779	-0.0000	-0.0000	-0.0000	0.2814	-0.0000	-0.0000	-0.0000	0.0493
6648.0000	-0.0000	3.3375	1.1332	-0.0000	-0.0000	-0.0000	-0.0000	0.0745	-0.0000	-0.0000	-0.0000	0.2768	-0.0000	-0.0000	-0.0000	0.0471
6656.0000	-0.0000	3.3487	1.1398	-0.0000	-0.0000	-0.0000	-0.0000	0.0714	-0.0000	-0.0000	-0.0000	0.2723	-0.0000	-0.0000	-0.0000	0.0449
6664.0000	-0.0000	3.3030	1.1493	-0.0000	-0.0000	-0.0000	-0.0000	0.0682	-0.0000	-0.0000	-0.0000	0.2677	-0.0000	-0.0000	-0.0000	0.0427
6672.0000	-0.0000	3.2397	1.1602	-0.0000	-0.0000	-0.0000	-0.0000	0.0650	-0.0000	-0.0000	-0.0000	0.2627	-0.0000	-0.0000	-0.0000	0.0405
6680.0000	-0.0000	3.2183	1.1690	-0.0000	-0.0000	-0.0000	-0.0000	0.0621	-0.0000	-0.0000	-0.0000	0.2577	-0.0000	-0.0000	-0.0000	0.0386
6688.0000	-0.0000	3.2261	1.1758	-0.0000	-0.0000	-0.0000	-0.0000	0.0593	-0.0000	-0.0000	-0.0000	0.2528	-0.0000	-0.0000	-0.0000	0.0366
6696.0000	-0.0000	3.2238	1.1811	-0.0000	-0.0000	-0.0000	-0.0000	0.0563	-0.0000	-0.0000	-0.0000	0.2476	-0.0000	-0.0000	-0.0000	0.0346
6704.0000	-0.0000	3.2089	1.1848	-0.0000	-0.0000	-0.0000	-0.0000	0.0535	-0.0000	-0.0000	-0.0000	0.2422	-0.0000	-0.0000	-0.0000	0.0328
6712.0000	-0.0000	3.1770	1.1885	-0.0000	-0.0000	-0.0000	-0.0000	0.0509	-0.0000	-0.0000	-0.0000	0.2370	-0.0000	-0.0000	-0.0000	0.0310
6720.0000	-0.0000	3.1131	1.1920	-0.0000	-0.0000	-0.0000	-0.0000	0.0483	-0.0000	-0.0000	-0.0000	0.2317	-0.0000	-0.0000	-0.0000	0.0292
6728.0000	-0.0000	3.0427	1.1917	-0.0000	-0.0000	-0.0000	-0.0000	0.0456	-0.0000	-0.0000	-0.0000	0.2262	-0.0000	-0.0000	-0.0000	0.0275
6736.0000	-0.0000	3.0061	1.1881	-0.0000	-0.0000	-0.0000	-0.0000	0.0432	-0.0000	-0.0000	-0.0000	0.2207	-0.0000	-0.0000	-0.0000	0.0259
6744.0000	-0.0000	2.9929	1.1869	-0.0000	-0.0000	-0.0000	-0.0000	0.0409	-0.0000	-0.0000	-0.0000	0.2154	-0.0000	-0.0000	-0.0000	0.0243
6752.0000	-0.0000	2.9681	1.1904	-0.0000	-0.0000	-0.0000	-0.0000	0.0385	-0.0000	-0.0000	-0.0000	0.2099	-0.0000	-0.0000	-0.0000	0.0227
6760.0000	-0.0000	2.9241	1.1952	-0.0000	-0.0000	-0.0000	-0.0000	0.0362	-0.0000	-0.0000	-0.0000	0.2042	-0.0000	-0.0000	-0.0000	0.0213
6768.0000	-0.0000	2.8611	1.2001	-0.0000	-0.0000	-0.0000	-0.0000	0.0341	-0.0000	-0.0000	-0.0000	0.1988	-0.0000	-0.0000	-0.0000	0.0199
6776.0000	-0.0000	2.7753	1.2070	-0.0000	-0.0000	-0.0000	-0.0000	0.0320	-0.0000	-0.0000	-0.0000	0.1935	-0.0000	-0.0000	-0.0000	0.0185
6784.0000	-0.0000	2.6862	1.2138	-0.0000	-0.0000	-0.0000	-0.0000	0.0299	-0.0000	-0.0000	-0.0000	0.1879	-0.0000	-0.0000	-0.0000	0.0172
6792.0000	-0.0000	2.6210	1.2164	-0.0000	-0.0000	-0.0000	-0.0000	0.0279	-0.0000	-0.0000	-0.0000	0.1824	-0.0000	-0.0000	-0.0000	0.0159
6800.0000	-0.0000	2.5767	1.2160	-0.0000	-0.0000	-0.0000	-0.0000	0.0261	-0.0000	-0.0000	-0.0000	0.1771	-0.0000	-0.0000	-0.0000	0.0147
6808.0000	-0.0000	2.5427	1.2151	-0.0000	-0.0000	-0.0000	-0.0000	0.0242	-0.0000	-0.0000	-0.0000	0.1717	-0.0000	-0.0000	-0.0000	0.0135
6816.0000	-0.0000	2.5228	1.2125	-0.0000	-0.0000	-0.0000	-0.0000	0.0223	-0.0000	-0.0000	-0.0000	0.1662	-0.0000	-0.0000	-0.0000	0.0124
6824.0000	-0.0000	2.5062	1.2075	-0.0000	-0.0000	-0.0000	-0.0000	0.0207	-0.0000	-0.0000	-0.0000	0.1610	-0.0000	-0.0000	-0.0000	0.0113
6832.0000	-0.0000	2.4642	1.2029	-0.0000	-0.0000	-0.0000	-0.0000	0.0190	-0.0000	-0.0000	-0.0000	0.1559	-0.0000	-0.0000	-0.0000	0.0102
6840.0000	-0.0000	2.3940	1.2004	-0.0000	-0.0000	-0.0000	-0.0000	0.0173	-0.0000	-0.0000	-0.0000	0.1506	-0.0000	-0.0000	-0.0000	0.0092
6848.0000	-0.0000	2.3190	1.1984	-0.0000	-0.0000	-0.0000	-0.0000	0.0158	-0.0000	-0.0000	-0.0000	0.1454	-0.0000	-0.0000	-0.0000	0.0082
6856.0000	-0.0000	2.2516	1.1962	-0.0000	-0.0000	-0.0000	-0.0000	0.0143	-0.0000	-0.0000	-0.0000	0.1404	-0.0000	-0.0000	-0.0000	0.0073
6864.0000	-0.0000	2.2008	1.1947	-0.0000	-0.0000	-0.0000	-0.0000	0.0128	-0.0000	-0.0000	-0.0000	0.1354	-0.0000	-0.0000	-0.0000	0.0064
6872.0000	-0.0000	2.1866	1.1935	-0.0000	-0.0000	-0.0000	-0.0000	0.0114	-0.0000	-0.0000	-0.0000	0.1304	-0.0000	-0.0000	-0.0000	0.0055
6880.0000	-0.0000	2.2076	1.1918	-0.0000	-0.0000	-0.0000	-0.0000	0.0101	-0.0000	-0.0000	-0.0000	0.1256	-0.0000	-0.0000	-0.0000	0.0047
6888.0000	-0.0000	2.2279	1.1900	-0.0000	-0.0000	-0.0000	-0.0000	0.0088	-0.0000	-0.0000	-0.0000	0.1209	-0.0000	-0.0000	-0.0000	0.0039
6896.0000	-0.0000	2.2187	1.1866	-0.0000	-0.0000	-0.0000	-0.0000	0.0075	-0.0000	-0.0000	-0.0000	0.1161	-0.0000	-0.0000	-0.0000	0.0032
6904.0000	-0.0000	2.1727	1.1774	-0.0000	-0.0000	-0.0000	-0.0000	0.0064	-0.0000	-0.0000	-0.0000	0.1114	-0.0000	-0.0000	-0.0000	0.0026
6912.0000	-0.0000	2.0806	1.1585	-0.0000	-0.0000	-0.0000	-0.0000	0.0054	-0.0000	-0.0000	-0.0000	0.1070	-0.0000	-0.0000	-0.0000	0.0020
6920.0000	-0.0000	1.9391	1.1286	-0.0000	-0.0000	-0.0000	-0.0000	0.0044	-0.0000	-0.0000	-0.0000	0.1026	-0.0000	-0.0000	-0.0000	0.0015
6928.0000	-0.0000	1.7775	1.0878	-0.0000	-0.0000	-0.0000	-0.0000	0.0034	-0.0000	-0.0000	-0.0000	0.0982	-0.0000	-0.0000	-0.0000	0.0010
6936.0000	-0.0000	1.6403	1.0372	-0.0000	-0.0000	-0.0000	-0.0000	0.0026	-0.0000	-0.0000	-0.0000	0.0939	-0.0000	-0.0000	-0.0000	0.0006
6944.0000	-0.0000	1.5537	0.9814	-0.0000	-0.0000	-0.0000	-0.0000	0.0019	-0.0000	-0.0000	-0.0000	0.0899	-0.0000	-0.0000	-0.0000	0.0003
6952.0000	-0.0000	1.5166	0.9253	-0.0000	-0.0000	-0.0000	-0.0000	0.0013	-0.0000	-0.0000	-0.0000	0.0858	-0.0000	-0.0000	-0.0000	0.0000
6960.0000	-0.0000	1.5029	0.8708	-0.0000	-0.0000	-0.0000	-0.0000	0.0008	-0.0000	-0.0000	-0.0000	0.0819	-0.0000	-0.0000	-0.0000	-0.0000
6968.0000	-0.0000	1.4702	0.8156	-0.0000	-0.0000	-0.0000	-0.0000	0.0005	-0.0000	-0.0000	-0.0000	0.0782	-0.0000	-0.0000	-0.0000	-0.0000
6976.0000	-0.0000	1.3868	0.7555	-0.0000	-0.0000	-0.0000	-0.0000	0.0002	-0.0000	-0.0000	-0.0000	0.0745	-0.0000	-0.0000	-0.0000	-0.0000
6984.0000	-0.0000	1.2451	0.6863	-0.0000	-0.0000	-0.0000	-0.0000	0.0000	-0.0000	-0.0000	-0.0000	0.0709	-0.0000	-0.0000	-0.0000	-0.0000
6992.0000	-0.0000	1.0483	0.6062	-0.0000	-0.0000	-0.0000	-0.0000	-0.0000	-0.0000	-0.0000	-0.0000	0.0675	-0.0000	-0.0000	-0.0000	-0.0000
7000.0000	-0.0000	0.8114	0.5165	-0.0000	-0.0000	-0.0000	-0.0000	-0.0000	-0.0000	-0.0000	-0.0000	0.0642	-0.0000	-0.0000	-0.0000	-0.0000
7008.0000	-0.0000	0.5716	0.4217	-0.0000	-0.0000	-0.0000	-0.0000	-0.0000	-0.0000	-0.0000	-0.0000	0.0609	-0.0000	-0.0000	-0.0000	-0.0000
7016.0000	-0.0000	0.3606	0.3256	-0.0000	-0.0000	-0.0000	-0.0000	-0.0000	-0.0000	-0.0000	-0.0000	0.0577	-0.0000	-0.0000	-0.0000	-0.0000
7024.0000	-0.0000	0.1763	0.2295	-0.0000	-0.0000	-0.0000	-0.0000	-0.0000	-0.0000	-0.0000	-0.0000	0.0547	-0.0000	-0.0000	-0.0000	-0.0000
7032.0000	-0.0000	0.0090	0.1328	-0.0000	-0.0000	-0.0000	-0.0000	-0.0000	-0.0000	-0.0000	-0.0000	0.0518	-0.0000	-0.0000	-0.0000	-0.0000
7040.0000	-0.0000	-0.1339	0.0357	-0.0000	-0.0000	-0.0000	-0.0000	-0.0000	-0.0000	-0.0000	-0.0000	0.0489	-0.0000	-0.0000	-0.0000	-0.0000
7048.0000	-0.0000	-0.2568	-0.0597	-0.0000	-0.0000	-0.0000	-0.0000	-0.0000	-0.0000	-0.0000	-0.0000	0.0461	-0.0000	-0.0000	-0.0000	-0.0000
7056.0000	-0.0000	-0.3912	-0.1528	-0.0000	-0.0000	-0.0000	-0.0000	-0.0000	-0.0000	-0.0000	-0.0000	0.0434	-0.0000	-0.0000	-0.0000	-0.0000
7064.0000	-0.0000	-0.5599	-0.2449	-0.0000	-0.0000	-0.0000	-0.0000	-0.0000	-0.0000	-0.0000	-0.0000	0.0408	-0.0000	-0.0000	-0.0000	-0.0000
7072.0000	-0.0000	-0.7608	-0.3358	-0.0000	-0.0000	-0.0000	-0.0000	-0.0000	-0.0000	-0.0000	-0.0000	0.0382	-0.0000	-0.0000	-0.0000	-0.0000
7080.0000	-0.0000	-0.9840	-0.4227	-0.0000	-0.0000	-0.0000	-0.0000	-0.0000	-0.0000	-0.0000	-0.0000	0.0359	-0.0000	-0.0000	-0.0000	-0.0000
7088.0000	-0.0000	-1.2070	-0.5029	-0.0000	-0.0000	-0.0000	-0.0000	-0.0000	-0.0000	-0.0000	-0.0000	0.0335	-0.0000	-0.0000	-0.0000	-0.0000
7096.0000	-0.0000	-1.3837	-0.5777	-0.0000	-0.0000	-0.0000	-0.0000	-0.0000	-0.0000	-0.0000	-0.0000	0.0313	-0.0000	-0.0000	-0.0000	-0.0000
7104.0000	-0.0000	-1.4858	-0.6489	-0.0000	-0.0000	-0.0000	-0.0000	-0.0000	-0.0000	-0.0000	-0.0000	0.0291	-0.0000	-0.0000	-0.0000	-0.0000
7112.0000	-0.0000	-1.5403	-0.7142	-0.0000	-0.0000	-0.0000	-0.0000	-0.0000	-0.0000	-0.0000	-0.0000	0.0271	-0.0000	-0.0000	-0.0000	-0.0000
7120.0000	-0.0000	-1.5959	-0.7687	-0.0000	-0.0000	-0.0000	-0.0000	-0.0000	-0.0000	-0.0000	-0.0000	0.0251	-0.0000	-0.0000	-0.0000	-0.0000
7128.0000	-0.0000	-1.6754	-0.8096	-0.0000	-0.0000	-0.0000	-0.0000	-0.0000	-0.0000	-0.0000	-0.0000	0.0232	-0.0000	-0.0000	-0.0000	-0.0000
7136.0000	-0.0000	-1.7773	-0.8392	-0.0000	-0.0000	-0.0000	-0.0000	-0.0000	-0.0000	-0.0000	-0.0000	0.0215	-0.0000	-0.0000	-0.0000	-0.0000
7144.0000	-0.0000	-1.8900	-0.8623	-0.0000	-0.0000	-0.0000	-0.0000	-0.0000	-0.0000	-0.0000	-0.0000	0.0198	-0.0000	-0.0000	-0.0000	-0.0000
7152.0000	-0.0000	-1.9905	-0.8822	-0.0000	-0.0000	-0.0000	-0.0000	-0.0000	-0.0000	-0.0000	-0.0000	0.0182	-0.0000	-0.0000	-0.0000	-0.0000
7160.0000	-0.0000	-2.0540	-0.9008	-0.0000	-0.0000	-0.0000	-0.0000	-0.0000	-0.0000	-0.0000	-0.0000	0.0166	-0.0000	-0.0000	-0.0000	-0.0000
7168.0000	-0.0000	-2.0761	-0.9180	-0.0000	-0.0000	-0.0000	-0.0000	-0.0000	-0.0000	-0.0000	-0.0000	0.0152	-0.0000	-0.0000	-0.0000	-0.0000
7176.0000	-0.0000	-2.0698	-0.9304	-0.0000	-0.0000	-0.0000	-0.0000	-0.0000	-0.0000	-0.0000	-0.0000	0.0138	-0.0000	-0.0000	-0.0000	-0.0000
7184.0000	-0.0000	-2.0542	-0.9341	-0.0000	-0.0000	-0.0000	-0.0000	-0.0000	-0.0000	-0.0000	-0.0000	0.0125	-0.0000	-0.0000	-0.0000	-0.0000
7192.0000	-0.0000	-2.0511	-0.9305	-0.0000	-0.0000	-0.0000	-0.0000	-0.0000	-0.0000	-0.0000	-0.0000	0.0113	-0.0000	-0.0000	-0.0000	-0.0000
7200.0000	-0.0000	-2.0734	-0.9242	-0.0000	-0.0000	-0.0000	-0.0000	-0.0000	-0.0000	-0.0000	-0.0000	0.0102	-0.0000	-0.0000	-0.0000	-0.0000
7208.0000	-0.0000	-2.1108	-0.9152	-0.0000	-0.0000	-0.0000	-0.0000	-0.0000	-0.0000	-0.0000	-0.0000	0.0091	-0.0000	-0.0000	-0.0000	-0.0000
7216.0000	-0.0000	-2.1389	-0.8989	-0.0000	-0.0000	-0.0000	-0.0000	-0.0000	-0.0000	-0.0000	-0.0000	0.0081	-0.0000	-0.0000	-0.0000	-0.0000
7224.0000	-0.0000	-2.1399	-0.8743	-0.0000	-0.0000	-0.0000	-0.0000	-0.0000	-0.0000	-0.0000	-0.0000	0.0072	-0.0000	-0.0000	-0.0000	-0.0000
7232.0000	-0.0000	-2.0993	-0.8428	-0.0000	-0.0000	-0.0000	-0.0000	-0.0000	-0.0000	-0.0000	-0.0000	0.0063	-0.0000	-0.0000	-0.0000	-0.0000
7240.0000	-0.0000	-2.0050	-0.7998	-0.0000	-0.0000	-0.0000	-0.0000	-0.0000	-0.0000	-0.0000	-0.0000	0.0054	-0.0000	-0.0000	-0.0000	-0.0000
